#Acq. time (s)=	10
#Accumulations=	2
#Range (cm-¹)=	10...2000
#Windows=	7
#Auto scanning=	On
#Autofocus=	Off
#AutoExposure=	Off
#Spike filter=	Multiple accum.
#Delay time (s)=	0
#Binning=	1
#Readout mode=	Signal
#DeNoise=	Off
#ICS correction=	Off
#Dark correction=	Off
#Inst. Process=	Off
#Detector Gain=	Best Dynamic Range
#Detector ADC=	45 kHz       
#Detector temperature (°C)=	-60.1
#Instrument=	LabRAM HR Evol
#Detector=	Syncerity OE
#Objective=	x100_VIS
#Grating=	600 (500nm)
#ND Filter=	100%
#Laser=	785nm_ULF
#Hole=	150.001
#Range=	Visible
#E-Cal_Neon=	0
#StageXY=	130x85mm Scan+
#StageZ=	Z motor
#X (µm)=	0
#Y (µm)=	0
#Z (µm)=	-884.4
#Spectral res.(cm-¹)=	5
#Full time(mm:ss)=	2:52
#AC=	Calibrated 2025-11-12 13:40
#Project=	POSA
#Sample=	20251112_PCM
#Site=	CMAC
#Title=	A2_20251112_PCM
#Remark=	
#Date=	12.11.2025 14:53
#Acquired=	12.11.2025 14:53:29
#AxisType[0]=Intens
#AxisUnit[0]=Cnt
#AxisType[1]=Spectr
#AxisUnit[1]=1/cm
10.0615	202
10.8907	202.35
11.7199	202.226
12.549	192.959
13.3779	175.946
14.2068	173.496
15.0355	170.643
15.8641	168.842
16.6927	159.154
17.5211	166.689
18.3484	163.237
19.1766	171.845
20.0047	169.338
20.8327	181.995
21.6605	181.255
22.4883	199.091
23.315	199.066
24.1425	228.977
24.97	224.435
25.7973	202.3
26.6245	174.664
27.4507	162.906
28.2777	173.976
29.1046	162.794
29.9314	149.372
30.7571	158.758
31.5837	160.828
32.4101	153.144
33.2365	160.574
34.0618	160.864
34.8879	179.613
35.714	187.239
36.5389	198.324
37.3648	212.336
38.1905	188.671
39.0151	188.002
39.8406	168.19
40.6651	178.18
41.4903	175.306
42.3155	184.94
43.1396	191.8
43.9646	190.181
44.7885	202.172
45.6132	200.464
46.4369	217.811
47.2614	204.934
48.0859	210.654
48.9092	228.047
49.7335	236.936
50.5566	266.979
51.3806	287.449
52.2035	274.225
53.0273	221.797
53.85	217.425
54.6726	200.17
55.4961	188.656
56.3185	185.453
57.1417	186.947
57.9639	178.175
58.787	181.529
59.6089	176.896
60.4308	189.509
61.2535	180.584
62.0751	175.766
62.8967	197.165
63.7191	194.264
64.5404	197.315
65.3616	196.781
66.1837	209.74
67.0047	209.498
67.8256	210.71
68.6473	213.096
69.468	207.986
70.2886	226.36
71.1091	225.381
71.9304	230.245
72.7507	226.165
73.5708	238.45
74.3909	240.16
75.2118	239.919
76.0316	240.652
76.8513	246.808
77.6709	249.655
78.4905	240.016
79.3099	240.104
80.1301	229.826
80.9493	235.486
81.7684	221.681
82.5874	221.91
83.4063	227.281
84.225	222.007
85.0437	221.013
85.8623	219.019
86.6807	209.732
87.4991	218.571
88.3173	207.307
89.1364	202.786
89.9544	210.891
90.7724	212.504
91.5902	203.62
92.4079	198.308
93.2255	209.94
94.043	195.154
94.8604	186.869
95.6767	202.286
96.4939	205.259
97.311	199.28
98.1279	202.718
98.9448	207.663
99.7616	215.153
100.578	219.166
101.395	209.12
102.211	213.985
103.028	225.027
103.844	219.206
104.659	213.266
105.475	217.68
106.291	215.205
107.107	223.509
107.922	223.845
108.737	225.032
109.552	235.769
110.368	229.851
111.183	230.737
111.998	231.5
112.812	240.969
113.627	232.177
114.442	238.942
115.257	236.297
116.071	259.858
116.885	267.242
117.7	277.04
118.513	282.163
119.327	301.6
120.141	294.241
120.954	307.902
121.768	325.534
122.582	327.862
123.395	322.226
124.209	305.718
125.021	283.115
125.834	281.533
126.648	261.813
127.46	245.543
128.273	242.523
129.085	233.13
129.898	222.477
130.71	218.231
131.522	220.533
132.334	201.554
133.146	203.281
133.958	203.863
134.77	211.147
135.581	205.318
136.393	217.079
137.204	211.49
138.016	212.021
138.827	207.808
139.638	206.831
140.449	206.501
141.259	205.841
142.071	202.485
142.881	209.925
143.692	187.741
144.502	199.822
145.312	192.468
146.123	181.111
146.932	164.123
147.742	165.094
148.552	158.046
149.362	154.436
150.171	144.255
150.981	144.039
151.79	140.297
152.599	144.22
153.408	139.023
154.218	132.713
155.027	134.455
155.835	124.592
156.644	118.988
157.452	121.765
158.261	115.136
159.069	118.991
159.877	118.249
160.685	114.087
161.493	110.108
162.301	117.816
163.109	110.285
163.917	107.986
164.724	105.761
165.532	110.471
166.339	111.441
167.146	107.371
167.953	112.146
168.76	107.86
169.567	104.082
170.373	103.302
171.18	110.319
171.987	104.457
172.793	111.569
173.599	100.965
174.405	107.186
175.211	101.368
176.017	105.89
176.823	104.978
177.629	97.4962
178.435	103.169
179.24	101.443
180.046	103.51
180.851	92.9566
181.656	103.562
182.461	102.094
183.266	101.494
184.07	90.6396
184.875	94.0117
185.68	102.666
186.485	94.8992
187.289	97.1766
188.094	97.6241
188.898	97.4189
189.701	91.4689
190.505	95.454
191.309	100.594
192.113	91.586
192.916	88.0338
193.72	106.344
194.523	104.436
195.327	95.955
196.129	99.0017
196.932	91.271
197.736	96.4245
198.538	107.517
199.341	91.9099
200.144	96.8653
200.945	103.753
201.748	96.7345
202.551	99.2482
203.352	94.9595
204.155	98.7975
204.957	104.44
205.758	89.9216
206.56	107.853
207.361	97.2865
208.163	106.28
208.964	107.027
209.765	108.099
210.567	105.367
211.367	103.327
212.169	101.619
212.969	103.089
213.77	103.57
214.57	99.3225
215.37	100.888
216.171	100.851
216.971	97.5885
217.771	101.227
218.571	89.7605
219.371	94.6028
220.171	96.3816
220.971	89.5951
221.77	87.4828
222.569	94.5573
223.369	87.6735
224.168	88.2528
224.967	84.3816
225.766	83.4289
226.565	81.4169
227.363	83.4341
228.162	88.1969
228.961	83.0742
229.759	86.0663
230.558	83.2649
231.356	81.0727
232.154	75.2679
232.951	73.3083
233.75	87.5711
234.547	86.3998
235.345	80.1589
236.142	84.896
236.939	84.1104
237.737	83.5824
238.534	80.0622
239.331	80.4084
240.128	77.1636
240.925	83.1058
241.721	73.3102
242.518	84.752
243.315	87.7739
244.112	84.302
244.908	77.736
245.704	75.4407
246.5	79.0042
247.296	85.5179
248.092	79.76
248.887	78.6686
249.683	83.6149
250.478	79.8981
251.274	82.0505
252.069	76.2939
252.864	75.8619
253.659	86.3191
254.454	79.4842
255.249	80.4905
256.044	82.7577
256.839	75.4462
257.633	79.8544
258.428	70.5418
259.222	79.2519
260.016	75.482
260.81	73.2453
261.604	75.2782
262.398	74.9983
263.191	68.9802
263.985	76.6394
264.779	73.1033
265.571	69.534
266.365	80.8662
267.158	74.9178
267.952	77.0309
268.745	78.6234
269.537	80.4192
270.33	77.1611
271.123	78.5556
271.915	71.2109
272.707	78.8127
273.5	76.5225
274.292	75.7768
275.085	75.4185
275.876	75.9583
276.668	74.4312
277.46	71.7937
278.251	77.5511
279.043	74.0051
279.834	62.4493
280.625	78.1339
281.417	76.0303
282.207	76.5973
282.999	69.2112
283.789	75.4875
284.58	79.4298
285.371	77.5337
286.161	77.2977
286.952	81.9537
287.742	69.4039
288.533	74.7975
289.322	72.6793
290.113	70.321
290.902	68.8539
291.692	75.512
292.481	77.8438
293.271	71.8202
294.06	73.967
294.85	76.9688
295.639	77.0428
296.428	78.1852
297.217	78.631
298.006	71.8678
298.795	74.9082
299.584	71.3008
300.372	75.8651
301.161	76.7349
301.949	70.1097
302.737	73.8564
303.525	78.4262
304.313	81.6105
305.101	82.1764
305.888	77.1992
306.677	79.4888
307.464	82.4827
308.251	75.8191
309.039	80.2278
309.826	70.0995
310.613	74.8849
311.4	72.9105
312.186	72.3054
312.974	78.2452
313.761	81.1398
314.547	74.7667
315.333	78.5932
316.119	75.4321
316.906	70.4883
317.693	73.0043
318.478	75.4823
319.264	73.9152
320.05	74.9978
320.836	72.4895
321.621	77.9419
322.406	83.4178
323.192	80.5163
323.977	75.9509
324.762	81.8035
325.547	83.4025
326.332	89.2837
327.117	87.1077
327.902	86.8246
328.686	86.3294
329.471	89.806
330.255	94.2374
331.039	97.3927
331.824	92.1147
332.608	97.4387
333.392	91.9469
334.176	97.3716
334.96	94.7924
335.743	87.4082
336.526	86.3006
337.309	84.083
338.093	83.975
338.876	78.5831
339.659	82.9982
340.443	84.2776
341.225	78.399
342.008	77.9719
342.79	77.9797
343.573	79.3136
344.356	85.5279
345.137	77.9927
345.92	79.9818
346.702	73.0376
347.484	75.5223
348.266	69.5143
349.048	73.7276
349.83	80.2134
350.61	69.0462
351.392	72.3208
352.174	72.0828
352.954	73.5187
353.736	74.4382
354.517	72.7969
355.298	73.8101
356.079	72.9392
356.859	72.5673
357.64	71.9528
358.421	76.1946
359.201	74.5921
359.981	73.0548
360.761	74.7189
361.541	73.0183
362.321	69.5567
363.101	69.52
363.88	73.7108
364.66	71.1368
365.439	70.4433
366.219	71.686
366.998	65.2516
367.778	69.8654
368.556	73.4304
369.335	72.9863
370.114	72.6196
370.893	74.5011
371.672	70.9836
372.45	71.1146
373.228	71.9737
374.007	70.6527
374.785	67.7883
375.563	70.2709
376.341	71.0352
377.119	69.6072
377.896	70.7559
378.674	69.3719
379.452	66.5942
380.229	69.3972
381.006	70.8407
381.784	69.4825
382.561	69.5407
383.338	70.7482
384.114	74.2216
384.892	75.4781
385.668	76.3466
386.445	81.4372
387.221	84.7626
387.997	92.0107
388.774	89.4494
389.55	85.0119
390.326	83.9497
391.102	87.1231
391.878	83.1666
392.653	85.558
393.429	84.8476
394.204	80.4208
394.98	82.1314
395.755	82.1744
396.53	83.2443
397.305	80.9671
398.081	74.3388
398.856	77.9022
399.63	73.3517
400.405	74.6377
401.179	67.4225
401.953	63.6381
402.727	66.3352
403.502	66.2538
404.276	65.2154
405.05	66.3963
405.824	64.7735
406.598	70.9058
407.371	73.3288
408.145	73.6275
408.919	64.1169
409.692	68.6505
410.465	73.6526
411.238	79.5578
412.011	75.1754
412.784	74.1054
413.557	64.6542
414.329	64.4852
415.102	61.1895
415.875	66.2127
416.647	71.6081
417.42	70.9174
418.191	72.5461
418.964	68.151
419.736	70.0959
420.507	74.5863
421.279	67.6608
421.868	60.055
422.641	62.0656
423.416	75.9323
424.189	65.9554
424.964	75.8675
425.737	62.0492
426.511	64.1162
427.284	70.0147
428.058	62.0837
428.831	71.7954
429.605	60.0446
430.378	65.9647
431.15	69.7685
431.924	65.7186
432.696	65.5733
433.469	69.5469
434.242	65.8166
435.014	69.6585
435.787	69.6353
436.559	67.6929
437.331	58.0936
438.103	65.7429
438.875	67.7279
439.646	63.8595
440.419	67.4536
441.19	63.6796
441.962	63.8826
442.733	67.6582
443.505	65.644
444.276	59.5872
445.047	70.7912
445.817	70.9772
446.589	59.7606
447.36	69.2432
448.13	69.324
448.9	69.2876
449.671	74.5619
450.441	69.1366
451.212	76.979
451.982	73.8781
452.752	77.1215
453.522	73.1659
454.292	79.1647
455.061	75.3118
455.831	73.1979
456.6	78.7135
457.369	78.2878
458.14	72.8687
458.909	74.5505
459.678	70.6209
460.447	69.1939
461.216	72.756
461.984	65.197
462.753	66.9687
463.522	67.1231
464.29	70.5772
465.059	60.7782
465.827	74.3815
466.595	65.9329
467.362	58.1602
468.13	65.5145
468.898	65.975
469.666	63.3754
470.434	64.7433
471.201	68.7234
471.969	61.3496
472.736	66.231
473.503	61.9926
474.271	65.6915
475.037	68.052
475.804	62.0324
476.571	59.8162
477.338	64.2283
478.104	66.4931
478.87	59.9323
479.637	60.9277
480.403	60.7389
481.17	66.8052
481.935	67.3495
482.701	64.257
483.467	64.3439
484.233	62.8484
484.998	64.9675
485.764	64.1674
486.53	57.6007
487.294	69.3214
488.06	63.2528
488.825	63.5377
489.59	60.3764
490.355	58.3524
491.12	66.0106
491.884	64.3891
492.649	59.1664
493.414	69.4679
494.178	67.921
494.942	61.3507
495.706	65.6031
496.47	64.0859
497.234	61.8712
497.998	74.2055
498.761	68.386
499.525	63.3649
500.289	63.8492
501.052	59.5438
501.816	65.9106
502.579	63.7512
503.342	71.86
504.105	61.6388
504.868	64.03
505.631	71.9115
506.393	73.6683
507.156	74.628
507.918	81.5453
508.68	77.2895
509.443	73.8214
510.205	71.8457
510.968	73.5978
511.729	74.1236
512.491	73.4865
513.253	69.2052
514.015	64.4602
514.776	63.796
515.538	65.6785
516.299	62.8297
517.06	59.9902
517.822	62.3413
518.582	62.3822
519.343	65.0205
520.104	65.4774
520.865	58.8917
521.626	62.5121
522.386	58.1296
523.146	61.5025
523.906	64.619
524.667	65.1045
525.427	60.8341
526.187	61.3103
526.947	64.0727
527.706	60.1123
528.466	65.3469
529.225	65.9143
529.986	61.5114
530.745	56.707
531.504	62.1944
532.263	59.456
533.022	66.2146
533.781	57.9012
534.54	54.9805
535.298	54.9751
536.057	66.3501
536.816	57.331
537.574	65.0516
538.332	56.0399
539.091	62.2774
539.849	60.4734
540.607	61.416
541.365	61.8357
542.122	65.6924
542.88	64.0521
543.638	57.8484
544.395	60.8537
545.153	65.6241
545.91	57.572
546.668	58.4432
547.424	63.6673
548.181	68.9441
548.938	61.1152
549.695	60.0305
550.452	56.5569
551.208	59.3021
551.965	56.2391
552.721	58.1054
553.477	60.8363
554.234	60.0919
554.99	58.217
555.745	61.2629
556.501	56.1215
557.257	65.265
558.013	56.0142
558.768	58.6202
559.523	59.4036
560.279	63.279
561.035	63.9894
561.789	62.6973
562.544	59.8209
563.3	56.9192
564.054	54.1071
564.809	64.5644
565.564	61.8687
566.318	64.2387
567.073	60.5324
567.826	58.5219
568.581	57.5201
569.335	58.2281
570.089	58.46
570.843	50.0139
571.596	58.9839
572.35	58.308
573.104	59.5211
573.857	61.1938
574.61	60.084
575.364	54.709
576.117	59.9931
576.87	63.8851
577.623	57.4907
578.376	53.2371
579.129	53.0947
579.882	50.2475
580.634	60.7034
581.386	58.6424
582.139	60.5128
582.891	54.0577
583.643	62.981
584.395	59.2895
585.147	55.4978
585.899	58.3995
586.651	58.8532
587.402	58.5485
588.154	58.4642
588.905	58.2314
589.656	60.3455
590.408	61.2164
591.159	55.3199
591.91	56.8182
592.661	58.3426
593.412	57.2606
594.163	59.7568
594.913	59.9013
595.663	59.0298
596.414	60.6343
597.164	59.94
597.914	59.5808
598.664	66.5644
599.414	54.183
600.165	57.9835
600.915	58.9282
601.664	64.5314
602.414	63.0203
603.163	61.281
603.912	70.6049
604.662	67.6842
605.411	68.3031
606.16	55.4352
606.909	60.233
607.658	57.7875
608.407	60.2739
609.156	62.4254
609.904	64.4189
610.653	63.7765
611.401	56.507
612.149	57.6731
612.898	61.6782
613.646	62.1782
614.394	55.7633
615.141	58.9864
615.888	52.131
616.636	59.9625
617.384	53.9891
618.131	58.166
618.879	62.703
619.626	62.474
620.373	66.6509
621.121	70.4384
621.868	65.7409
622.614	71.1363
623.361	72.7946
624.107	71.7357
624.854	67.8268
625.601	67.5857
626.346	67.8739
627.093	66.9364
627.839	67.852
628.585	68.6587
629.331	67.8435
630.077	69.4062
630.823	62.9548
631.569	65.556
632.313	58.1779
633.059	62.1577
633.805	61.9241
634.549	59.3256
635.295	59.0045
636.04	61.3721
636.784	57.8355
637.53	59.6195
638.275	55.2957
639.019	59.3825
639.764	58.5847
640.507	55.7895
641.252	60.0771
641.997	63.5322
642.74	66.006
643.485	62.9947
644.228	69.9006
644.972	67.9483
645.716	67.9588
646.46	66.4578
647.203	67.7256
647.947	67.7051
648.69	77.7014
649.433	81.5278
650.176	93.198
650.919	95.2924
651.662	83.3239
652.404	80.8628
653.148	74.6198
653.89	72.0514
654.633	68.5176
655.375	67.3997
656.117	65.5898
656.86	59.5164
657.601	61.4928
658.343	55.725
659.086	57.0711
659.827	66.6039
660.568	58.0815
661.311	61.7895
662.052	59.9383
662.793	56.7657
663.535	57.9725
664.276	58.4681
665.017	59.1977
665.758	57.431
666.498	55.7205
667.24	61.8762
667.98	64.7982
668.721	60.0208
669.461	56.8761
670.201	56.6793
670.942	58.6223
671.682	62.7875
672.422	60.0722
673.162	59.5798
673.902	58.8851
674.642	55.5449
675.381	62.0417
676.121	62.2474
676.86	61.7851
677.6	60.6484
678.339	64.4035
679.079	59.6025
679.818	57.8378
680.557	60.5864
681.296	58.3533
682.035	58.5237
682.773	61.813
683.512	53.7504
684.249	59.1799
684.988	60.4727
685.726	58.5203
686.464	62.4112
687.203	63.7153
687.941	64.9514
688.679	63.1455
689.417	60.6509
690.154	59.7885
690.892	63.5847
691.63	61.9053
692.366	58.9291
693.104	60.3209
693.841	60.5394
694.578	62.9815
695.315	58.7201
696.052	62.2061
696.789	57.9415
697.526	56.9873
698.262	60.9596
698.998	59.4419
699.735	59.6675
700.471	53.4618
701.208	53.3261
701.943	59.0229
702.679	62.6989
703.416	63.4487
704.151	61.29
704.887	57.0795
705.623	64.3513
706.358	65.3567
707.093	63.084
707.829	58.3272
708.564	63.8765
709.299	64.4849
710.034	63.3867
710.769	60.0296
711.504	57.7337
712.238	60.6454
712.973	64.2365
713.707	67.1275
714.442	68.7694
715.176	65.6362
715.911	64.8039
716.644	62.2782
717.379	65.7916
718.112	59.3879
718.846	56.9599
719.58	57.3179
720.313	52.6102
721.047	55.66
721.78	60.1061
722.514	56.221
723.247	59.4952
723.979	63.5578
724.713	61.8507
725.446	63.7893
726.179	59.6199
726.911	55.6701
727.644	52.9329
728.376	55.1551
729.109	58.5428
729.841	56.7408
730.573	54.6922
731.306	52.7418
732.038	48.8158
732.769	53.8869
733.501	53.5549
734.233	59.8526
734.965	57.8959
735.696	50.4471
736.427	53.4544
737.158	47.9711
737.89	51.2268
738.621	52.5519
739.352	55.3489
740.083	59.0022
740.814	55.7044
741.544	54.5889
742.275	59.5634
743.005	59.0786
743.737	56.8937
744.467	56.1646
745.197	51.4639
745.927	49.7629
746.657	52.005
747.387	46.8827
748.117	50.4762
748.847	50.6646
749.576	53.332
750.306	55.3533
751.035	54.8803
751.765	54.2386
752.494	52.8042
753.223	52.1207
753.952	56.1729
754.681	59.3969
755.41	55.8814
756.138	51.2638
756.867	54.6809
757.596	55.922
758.324	50.3746
759.053	51.6615
759.781	52.3267
760.509	50.4
761.237	45.8752
761.965	51.2061
762.693	54.253
763.421	48.0445
764.148	43.83
764.876	47.7124
765.604	47.745
766.331	50.4346
767.058	54.0433
767.785	46.2126
768.513	52.1575
769.24	47.886
769.966	50.563
770.693	46.5274
771.42	56.0442
772.146	51.821
772.873	56.1483
773.6	53.8026
774.326	51.2052
775.052	52.8053
775.778	48.0438
776.504	46.2881
777.231	52.5443
777.956	50.5232
778.682	45.4752
779.407	54.5855
780.133	54.1492
780.858	46.0238
781.584	55.3455
782.309	54.7341
783.034	50.7395
783.759	53.1851
784.484	54.3234
785.209	52.64
785.934	54.391
786.658	47.088
787.382	54.9465
788.107	54.9095
788.831	58.7463
789.556	52.9578
790.28	51.3124
791.004	62.6522
791.728	56.594
792.452	60.4748
793.175	56.9642
793.9	60.7247
794.623	70.1972
795.346	74.45
796.07	66.9581
796.793	70.7999
797.516	76.8477
798.24	88.7002
798.963	77.0607
799.685	84.872
800.408	84.7769
801.13	84.8458
801.854	75.1499
802.576	69.0484
803.298	65.0032
804.021	62.9494
804.049	62.8641
804.774	56.8588
805.498	66.8408
806.223	60.8329
806.947	52.8577
807.672	52.8114
808.396	60.7486
809.12	58.7523
809.844	56.8022
810.568	60.6942
811.292	56.7572
812.016	50.8314
812.74	56.7338
813.463	46.8034
814.187	52.7024
814.91	50.8481
815.634	58.546
816.357	56.7148
817.08	52.6026
817.802	60.3099
818.525	54.5086
819.248	54.6762
819.971	58.6815
820.694	48.8525
821.417	54.6639
822.138	56.3039
822.861	48.9714
823.583	52.2406
824.305	46.9362
825.028	50.7932
825.749	58.2348
826.471	48.6745
827.193	54.4724
827.915	58.2672
828.636	54.5026
829.357	58.1288
830.079	50.7202
830.8	54.7907
831.521	54.6692
832.242	49.2591
832.964	50.8476
833.684	58.1198
834.405	54.776
835.125	60.0419
835.846	54.521
836.567	58.3431
837.287	51.071
838.008	66.1807
838.727	52.957
839.448	59.9732
840.168	61.3494
840.888	56.3068
841.608	59.8293
842.327	62.2246
843.047	64.2922
843.766	60.8495
844.486	55.7008
845.205	57.4078
845.925	60.4435
846.643	62.4914
847.363	56.7298
848.082	57.7319
848.801	58.3246
849.519	59.4395
850.238	59.9793
850.957	62.0082
851.675	58.5931
852.394	62.6826
853.112	58.741
853.83	51.8127
854.548	65.8602
855.266	65.6643
855.984	55.9452
856.702	62.0511
857.419	69.782
858.137	74.0922
858.855	79.3858
859.572	86.7896
860.289	102.405
861.007	90.215
861.724	94.4219
862.441	95.9291
863.158	92.8038
863.875	85.36
864.592	88.4938
865.308	81.0349
866.025	78.9766
866.741	68.1263
867.458	65.7372
868.174	62.0676
868.89	62.0936
869.606	55.3736
870.322	56.9086
871.038	53.399
871.754	58.2247
872.47	53.1473
873.186	53.5704
873.901	55.4851
874.616	48.5338
875.332	51.6817
876.047	53.4441
876.762	58.0382
877.477	52.3259
878.192	51.1572
878.907	53.0432
879.622	48.9716
880.336	48.2881
881.051	56.9366
881.765	51.05
882.48	50.9525
883.194	49.2386
883.908	50.7693
884.622	45.1591
885.337	51.7844
886.051	48.9735
886.764	48.5707
887.477	54.5399
888.191	49.6649
888.905	50.4752
889.618	49.2385
890.332	43.4646
891.045	49.4038
891.758	48.5763
892.471	53.1186
893.184	41.9911
893.897	45.0363
894.61	47.0462
895.322	44.2648
896.035	50.5714
896.747	46.2941
897.46	46.5556
898.172	50.7604
898.884	53.2628
899.597	48.5556
900.309	49.7549
901.02	47.5392
901.732	48.9118
902.444	47.5315
903.155	47.1542
903.867	50.9214
904.579	49.1975
905.29	49.1464
906.001	47.7279
906.712	44.2756
907.423	42.0904
908.135	49.085
908.845	49.0102
909.556	50.3089
910.266	51.0928
910.977	53.1875
911.688	49.7718
912.398	49.4359
913.108	45.7614
913.819	44.337
914.529	47.6109
915.239	47.8079
915.949	44.0703
916.659	46.5094
917.368	51.8125
918.078	49.4129
918.788	48.7567
919.498	49.5201
920.207	49.259
920.916	45.2672
921.625	51.3277
922.334	46.1096
923.044	44.8941
923.752	52.2538
924.461	48.8135
925.17	48.7797
925.878	51.3706
926.587	47.8458
927.296	44.317
928.004	42.746
928.712	47.4081
929.42	47.7169
930.128	44.4887
930.836	47.1175
931.544	44.8371
932.251	48.614
932.96	51.311
933.667	44.1254
934.374	48.8301
935.082	49.4097
935.789	46.1517
936.497	48.5795
937.204	48.0648
937.911	46.4802
938.617	51.3342
939.324	45.3991
940.031	49.0336
940.737	48.9401
941.445	47.7376
942.151	41.7641
942.857	49.9177
943.564	52.7795
944.27	45.5258
944.976	47.2492
945.682	43.0202
946.388	44.1385
947.093	46.2541
947.799	44.6867
948.505	49.1187
949.21	48.4697
949.916	49.4659
950.621	55.6885
951.326	45.0793
952.032	47.0698
952.737	44.8617
953.442	48.8236
954.146	42.7074
954.851	50.1969
955.556	50.9149
956.26	44.8125
956.965	51.2422
957.67	48.6588
958.374	51.6258
959.078	52.3962
959.782	50.3047
960.486	52.7634
961.19	48.7577
961.894	47.6673
962.598	50.8631
963.301	58.6737
964.005	56.7957
964.709	58.4491
965.412	57.9328
966.115	59.7718
966.818	63.1797
967.522	56.2842
968.224	59.8168
968.927	51.5991
969.63	57.8278
970.333	54.5233
971.036	49.5769
971.738	46.9454
972.44	53.7262
973.143	47.69
973.846	47.2332
974.547	47.2395
975.25	44.8836
975.951	50.9991
976.653	50.3191
977.355	48.9723
978.057	46.1243
978.758	49.3428
979.46	46.111
980.162	44.9983
980.863	46.5832
981.564	49.2485
982.265	47.6655
982.966	47.3686
983.667	46.1634
984.368	50.8176
985.069	48.0514
985.769	43.0269
986.471	50.3676
987.171	49.4657
987.871	50.3561
988.572	43.466
989.272	49.4116
989.972	46.6995
990.672	51.1017
991.372	47.5178
992.072	47.3561
992.772	46.4031
993.471	44.462
994.171	44.3914
994.87	43.4216
995.57	44.5648
996.269	48.2219
996.969	44.4272
997.667	45.465
998.366	45.6125
999.065	49.5127
999.765	49.3524
1000.46	47.6401
1001.16	44.6547
1001.86	45.2614
1002.56	45.3519
1003.26	43.3797
1003.96	44.3631
1004.65	48.4463
1005.35	49.1703
1006.05	46.5134
1006.75	49.8138
1007.45	48.4728
1008.14	52.0275
1008.84	45.5911
1009.54	49.5876
1010.24	49.6002
1010.93	51.5939
1011.63	42.2866
1012.33	51.2478
1013.03	42.8864
1013.72	43.0124
1014.42	52.8471
1015.12	51.9755
1015.81	52.5163
1016.51	51.6416
1017.21	49.1206
1017.9	48.4318
1018.6	55.9737
1019.29	50.0032
1019.99	50.3614
1020.69	50.993
1021.38	52.9687
1022.08	51.8252
1022.77	53.9235
1023.47	52.1734
1024.17	50.015
1024.86	47.7435
1025.56	48.9638
1026.25	44.4353
1026.95	47.2716
1027.64	47.2686
1028.34	43.2259
1029.03	45.1506
1029.73	45.4429
1030.42	43.8917
1031.12	48.8259
1031.81	45.0327
1032.51	50.4459
1033.2	47.6753
1033.9	47.2428
1034.59	46.1295
1035.28	45.5912
1035.98	45.4199
1036.67	47.2817
1037.37	44.5179
1038.06	48.0077
1038.75	42.7662
1039.45	48.8151
1040.14	49.218
1040.83	48.2157
1041.53	46.6235
1042.22	47.4155
1042.91	44.4495
1043.61	46.5192
1044.3	48.9821
1044.99	49.1995
1045.69	46.0785
1046.38	42.5723
1047.07	45.1391
1047.76	41.0663
1048.46	42.6473
1049.15	48.9289
1049.84	50.0558
1050.53	44.9521
1051.22	44.0914
1051.92	44.898
1052.61	42.3703
1053.3	49.0938
1053.99	45.6986
1054.68	45.7629
1055.37	44.7054
1056.07	44.8505
1056.76	43.4724
1057.45	48.3353
1058.14	42.1283
1058.83	47.2259
1059.52	43.5676
1060.21	47.0511
1060.9	43.3668
1061.59	47.72
1062.28	46.34
1062.98	48.8651
1063.67	42.7337
1064.36	39.0012
1065.05	42.2596
1065.74	42.9577
1066.43	42.5689
1067.12	44.1693
1067.81	42.98
1068.5	43.1666
1069.19	46.4021
1069.88	49.764
1070.56	43.4026
1071.25	47.4506
1071.94	41.8556
1072.63	43.7458
1073.32	45.5517
1074.01	44.0204
1074.7	45.0549
1075.39	44.1279
1076.08	45.5905
1076.77	40.0456
1077.46	47.6372
1078.14	48.091
1078.83	45.5591
1079.52	48.0741
1080.21	46.2081
1080.9	43.0329
1081.58	44.9961
1082.27	46.1698
1082.96	45.059
1083.65	44.7805
1084.34	47.9837
1085.02	39.8167
1085.71	42.7419
1086.4	45.1111
1087.09	42.6269
1087.77	44.1355
1088.46	45.125
1089.15	44.0275
1089.83	44.2118
1090.52	39.661
1091.21	42.3414
1091.9	46.5507
1092.58	47.2846
1093.27	44.8918
1093.95	44.2486
1094.64	45.5926
1095.33	41.3274
1096.01	42.2361
1096.7	45.9748
1097.39	44.4214
1098.07	42.6629
1098.76	42.4894
1099.44	46.9289
1100.13	43.5509
1100.81	43.2189
1101.5	45.9663
1102.18	44.5439
1102.87	42.6352
1103.56	48.2703
1104.24	43.532
1104.93	39.7008
1105.61	46.0159
1106.29	47.9377
1106.98	49.2047
1107.66	48.7888
1108.35	49.6344
1109.03	49.234
1109.72	49.0925
1110.4	48.6586
1111.09	43.5505
1111.77	41.3063
1112.45	42.998
1113.14	42.177
1113.82	40.1348
1114.51	42.1393
1115.19	41.8367
1115.87	43.2795
1116.56	41.8963
1117.24	45.8079
1117.92	49.2342
1118.61	45.4086
1119.29	44.2307
1119.97	42.835
1120.66	42.3308
1121.34	39.8209
1122.02	39.1105
1122.7	39.847
1123.39	41.3941
1124.07	48.5337
1124.75	47.3188
1125.43	47.0955
1126.12	47.2448
1126.8	45.6253
1127.48	44.6502
1128.16	45.6407
1128.84	46.7525
1129.53	41.698
1130.21	41.577
1130.89	46.2539
1131.57	47.1566
1132.25	43.1735
1132.93	44.0209
1133.61	46.1487
1134.3	42.6368
1134.98	43.3448
1135.66	46.7383
1136.34	46.9459
1137.02	43.8132
1137.7	45.653
1138.38	44.068
1139.06	44.7045
1139.74	50.6693
1140.42	48.0389
1141.1	46.969
1141.78	44.6357
1142.46	44.4398
1143.14	48.9727
1143.82	45.1216
1144.5	41.5953
1145.18	40.8418
1145.86	47.961
1146.54	50.5801
1147.22	43.5699
1147.9	43.5759
1148.58	41.4017
1149.26	42.0614
1149.94	44.1348
1150.62	42.9606
1151.3	43.0324
1151.97	42.8913
1152.65	45.4689
1153.33	49.9771
1154.01	48.7884
1154.69	47.6563
1155.37	44.811
1156.05	44.4236
1156.72	44.0525
1157.4	45.8009
1158.08	44.5754
1158.76	48.3578
1159.44	47.006
1160.11	45.9179
1160.79	44.4465
1161.47	46.5191
1162.15	40.4203
1162.82	44.9483
1163.5	44.0008
1164.02	40.9414
1164.7	46.9581
1165.38	46.935
1166.06	46.9369
1166.74	54.8817
1167.42	55.023
1168.1	65.0575
1168.78	80.7886
1169.46	82.7396
1170.14	71.079
1170.81	69.0356
1171.49	58.9695
1172.17	58.8069
1172.85	62.6555
1173.53	56.6122
1174.21	58.6288
1174.89	56.6206
1175.56	47.0458
1176.24	46.9141
1176.92	48.7225
1177.6	52.4109
1178.27	40.9578
1178.95	48.5458
1179.63	36.8846
1180.31	46.5999
1180.99	46.7398
1181.66	46.4864
1182.34	48.3844
1183.02	46.5717
1183.7	44.6811
1184.37	46.6078
1185.05	44.8295
1185.73	48.2855
1186.4	46.6053
1187.08	35.7035
1187.76	46.4957
1188.43	46.0232
1189.11	46.0673
1189.78	51.9212
1190.46	43.0416
1191.14	48.3851
1191.81	42.8167
1192.49	41.2578
1193.17	48.4867
1193.84	48.2265
1194.52	40.9473
1195.19	44.043
1195.87	42.5614
1196.54	46.2453
1197.22	38.7813
1197.89	49.9254
1198.57	41.1493
1199.24	46.5789
1199.92	44.3702
1200.59	43.0827
1201.27	41.1612
1201.94	39.6177
1202.62	52.094
1203.29	44.5797
1203.97	48.746
1204.64	47.8895
1205.32	47.6645
1205.99	42.3942
1206.67	40.6766
1207.34	47.8981
1208.01	42.855
1208.69	44.3959
1209.36	39.4284
1210.03	48.1763
1210.71	41.9608
1211.38	43.449
1212.06	43.3868
1212.73	46.342
1213.4	44.7821
1214.08	49.1381
1214.75	47.8779
1215.42	49.4251
1216.09	53.9563
1216.77	47.1919
1217.44	55.6461
1218.11	56.0098
1218.79	61.9662
1219.46	55.8298
1220.13	57.0639
1220.8	55.6446
1221.47	58.5078
1222.15	58.1605
1222.82	49.5917
1223.49	54.8463
1224.16	46.192
1224.83	46.4877
1225.51	51.1454
1226.18	50.8031
1226.85	51.3863
1227.52	43.2203
1228.19	46.128
1228.86	51.3373
1229.54	48.058
1230.21	50.5732
1230.88	45.2855
1231.55	49.2307
1232.22	48.459
1232.89	50.096
1233.56	46.8815
1234.23	50.8577
1234.9	46.1149
1235.57	54.4355
1236.24	57.554
1236.91	50.7268
1237.58	51.9986
1238.25	50.1641
1238.92	52.6117
1239.59	60.4074
1240.26	65.0597
1240.93	71.032
1241.6	64.2041
1242.27	65.1323
1242.94	62.26
1243.61	69.134
1244.28	68.4283
1244.95	67.6309
1245.62	66.4515
1246.29	65.4279
1246.96	58.8593
1247.62	55.3507
1248.29	55.335
1248.96	60.8705
1249.63	52.3209
1250.3	47.4464
1250.97	51.3361
1251.64	47.8394
1252.3	46.2934
1252.97	48.8804
1253.64	47.7463
1254.31	52.3047
1254.98	51.3111
1255.64	52.685
1256.31	44.8744
1256.98	47.2416
1257.65	49.6396
1258.31	49.7246
1258.98	49.21
1259.65	49.2305
1260.32	55.6443
1260.98	49.4507
1261.65	49.9099
1262.32	57.098
1262.98	53.3402
1263.65	51.99
1264.32	50.2103
1264.98	49.1731
1265.65	55.4867
1266.32	47.9217
1266.98	50.5871
1267.65	49.085
1268.32	50.4542
1268.98	50.7326
1269.65	55.1741
1270.31	52.4628
1270.98	45.3963
1271.65	50.342
1272.31	55.4497
1272.98	55.0006
1273.64	55.1687
1274.31	55.7449
1274.97	51.8356
1275.64	57.9781
1276.3	66.2748
1276.97	67.9161
1277.63	66.0188
1278.3	62.8612
1278.96	68.8435
1279.63	66.3544
1280.29	66.4443
1280.96	63.3042
1281.62	64.1884
1282.29	62.5257
1282.95	54.0637
1283.62	53.3129
1284.28	49.3552
1284.94	58.5281
1285.61	48.1469
1286.27	50.886
1286.94	47.1155
1287.6	50.9561
1288.26	51.8904
1288.93	44.2579
1289.59	46.9382
1290.25	45.046
1290.92	46.4585
1291.58	44.5941
1292.24	43.8006
1292.91	48.9819
1293.57	48.6792
1294.23	48.6175
1294.89	49.2598
1295.56	50.5789
1296.22	41.4699
1296.88	46.221
1297.54	42.4334
1298.21	46.7077
1298.87	39.7389
1299.53	48.1353
1300.19	41.6927
1300.85	50.2115
1301.52	46.9943
1302.18	45.5469
1302.84	50.8011
1303.5	42.1297
1304.16	48.1351
1304.82	45.5981
1305.49	42.6858
1306.15	44.8014
1306.81	43.6694
1307.47	49.7346
1308.13	43.3384
1308.79	48.2133
1309.45	45.8877
1310.11	43.3275
1310.77	49.3247
1311.44	52.1931
1312.1	50.1957
1312.76	48.2403
1313.42	55.568
1314.08	48.5131
1314.74	53.5785
1315.4	57.3222
1316.06	58.7308
1316.72	56.9656
1317.38	56.4498
1318.04	62.981
1318.7	70.2963
1319.36	71.618
1320.02	68.2231
1320.68	75.8183
1321.33	79.4983
1321.99	78.4405
1322.65	84.3745
1323.31	89.5726
1323.97	91.0517
1324.63	96.656
1325.29	98.972
1325.95	109.695
1326.61	122.928
1327.27	115.463
1327.92	107.883
1328.58	91.4025
1329.24	86.11
1329.9	75.6531
1330.56	72.8073
1331.22	70.8219
1331.87	63.2743
1332.53	61.1349
1333.19	57.8805
1333.85	51.9145
1334.5	53.1689
1335.16	52.5395
1335.82	54.7656
1336.48	49.1849
1337.13	45.2158
1337.79	47.2548
1338.45	48.1748
1339.1	42.2767
1339.76	45.7825
1340.42	46.8781
1341.08	46.8265
1341.73	48.2797
1342.39	52.7219
1343.05	44.8731
1343.7	45.2365
1344.36	48.2853
1345.02	44.9542
1345.67	46.7013
1346.33	47.3292
1346.98	49.2832
1347.64	46.5881
1348.3	46.085
1348.95	42.5675
1349.61	44.1196
1350.26	43.1612
1350.92	48.4757
1351.57	45.8746
1352.23	46.596
1352.88	47.4056
1353.54	49.4114
1354.19	52.1873
1354.85	47.6985
1355.5	44.6741
1356.16	47.0479
1356.81	47.5011
1357.47	46.3212
1358.12	46.0932
1358.78	45.8812
1359.43	43.3551
1360.09	48.3037
1360.74	48.2172
1361.4	45.1512
1362.05	45.8348
1362.7	45.0023
1363.36	46.5638
1364.01	47.0214
1364.67	48.0909
1365.32	50.4107
1365.97	47.8517
1366.63	46.5841
1367.28	48.0294
1367.93	51.4083
1368.59	53.611
1369.24	54.6218
1369.89	54.3132
1370.55	57.1019
1371.2	56.2121
1371.85	58.843
1372.5	63.3664
1373.16	61.5846
1373.81	61.8989
1374.46	57.9737
1375.12	62.2282
1375.77	63.4321
1376.42	62.7158
1377.07	57.4847
1377.72	59.2214
1378.38	54.2392
1379.03	50.0987
1379.68	56.3777
1380.33	51.0369
1380.98	57.2114
1381.64	56.4257
1382.29	52.7987
1382.94	51.744
1383.59	50.506
1384.24	51.1683
1384.89	48.9621
1385.54	49.8623
1386.19	51.4716
1386.84	44.3857
1387.5	43.8629
1388.15	39.4072
1388.8	43.7445
1389.45	48.9822
1390.1	41.2674
1390.75	42.9707
1391.4	43.6009
1392.05	44.6369
1392.7	44.9661
1393.35	37.3065
1394	39.4985
1394.65	39.8565
1395.3	44.4743
1395.95	44.3032
1396.6	44.7213
1397.25	42.3088
1397.9	41.8484
1398.55	47.3875
1399.2	43.6971
1399.85	41.0912
1400.5	41.5427
1401.14	38.8731
1401.79	42.8387
1402.44	45.3241
1403.09	48.0156
1403.74	46.9335
1404.39	40.3415
1405.04	40.5681
1405.69	45.8255
1406.33	42.9082
1406.98	41.4293
1407.63	43.9121
1408.28	47.7189
1408.93	47.1735
1409.58	41.0709
1410.22	43.9053
1410.87	39.3735
1411.52	40.1767
1412.17	43.4617
1412.81	34.7369
1413.46	44.1026
1414.11	40.3416
1414.76	49.8243
1415.4	39.1589
1416.05	39.798
1416.7	46.0234
1417.35	46.5179
1417.99	40.5843
1418.64	46.8988
1419.29	39.9231
1419.93	41.0577
1420.58	41.0164
1421.23	44.585
1421.87	44.5841
1422.52	44.7262
1423.17	46.1075
1423.81	45.9779
1424.46	45.3873
1425.1	40.9714
1425.75	46.6958
1426.4	46.0738
1427.04	45.4989
1427.69	38.7779
1428.33	44.1316
1428.98	42.5385
1429.62	40.3152
1430.27	47.8969
1430.91	43.2275
1431.56	46.657
1432.2	42.77
1432.85	45.9473
1433.49	44.5131
1434.14	44.1535
1434.78	40.9719
1435.43	41.4454
1436.07	43.5968
1436.72	35.9478
1437.36	47.325
1438.01	43.7196
1438.65	41.4749
1439.3	50.648
1439.94	44.1861
1440.58	48.3207
1441.23	40.4607
1441.87	43.247
1442.52	41.6562
1443.16	45.7634
1443.8	45.2905
1444.45	40.4084
1445.09	42.1187
1445.73	42.2136
1446.38	47.3717
1447.02	47.2256
1447.66	40.5053
1448.31	44.7197
1448.95	41.9922
1449.59	46.3694
1450.24	45.2991
1450.88	48.7545
1451.52	47.937
1452.16	43.873
1452.81	41.3754
1453.45	42.1251
1454.09	49.1483
1454.73	46.2488
1455.37	40.2455
1456.02	40.3885
1456.66	42.3812
1457.3	41.2401
1457.94	45.2271
1458.58	46.0137
1459.23	40.2986
1459.87	42.4064
1460.51	44.0883
1461.15	40.6935
1461.79	39.7139
1462.43	43.4054
1463.08	40.6086
1463.72	43.6087
1464.36	41.4579
1465	41.8392
1465.64	44.4966
1466.28	43.4294
1466.92	42.5271
1467.56	37.9594
1468.2	42.095
1468.84	43.2423
1469.48	45.6435
1470.12	46.1397
1470.76	41.6342
1471.4	44.0796
1472.04	39.4881
1472.68	37.0246
1473.32	39.8496
1473.96	43.6664
1474.6	35.4407
1475.24	35.8033
1475.88	40.9535
1476.52	42.5162
1477.16	39.1244
1477.8	38.6601
1478.44	43.1889
1479.08	43.6878
1479.72	41.5985
1480.36	41.9648
1481	42.1333
1481.63	42.2664
1482.27	43.833
1482.91	39.9678
1483.55	39.613
1484.19	40.5078
1484.83	40.5071
1485.47	33.2983
1486.1	36.3763
1486.74	37.0889
1487.38	41.8911
1488.02	37.472
1488.66	40.5067
1489.29	46.7703
1489.93	39.5542
1490.57	38.0959
1491.21	34.0188
1491.84	38.2719
1492.48	36.4752
1493.12	44.2123
1493.76	42.7845
1494.39	38.9553
1495.03	42.614
1495.67	40.2479
1496.3	39.8781
1496.94	43.1857
1497.58	40.5458
1498.22	43.7969
1498.85	45.1006
1499.49	44.4073
1500.12	41.8106
1500.76	40.5355
1501.4	41.8106
1501.62	42.4698
1502.26	38.4877
1502.89	44.4646
1503.53	42.4659
1504.17	42.462
1504.81	40.5057
1505.45	48.3499
1506.08	44.3852
1506.72	42.5777
1507.36	44.404
1508	50.3182
1508.64	42.5232
1509.27	40.3932
1509.91	44.416
1510.55	46.3151
1511.19	50.3739
1511.82	48.1763
1512.46	42.5098
1513.1	46.4069
1513.73	44.4857
1514.37	42.4854
1515.01	38.6131
1515.65	40.5659
1516.28	40.3284
1516.92	36.9027
1517.56	43.9983
1518.19	34.4539
1518.83	38.8227
1519.46	45.8615
1520.1	40.3769
1520.74	31.1721
1521.37	38.5372
1522.01	44.4448
1522.65	40.1726
1523.28	36.2037
1523.92	51.1097
1524.55	40.3858
1525.19	46.4725
1525.82	46.1355
1526.46	36.6695
1527.09	45.8149
1527.73	36.9925
1528.37	36.3349
1529	43.9329
1529.64	36.6679
1530.27	38.1251
1530.9	43.9166
1531.54	38.8765
1532.17	49.0366
1532.81	41.6761
1533.44	44.0589
1534.08	40.2634
1534.71	41.6115
1535.35	40.0545
1535.98	44.0194
1536.62	39.7885
1537.25	44.8319
1537.88	41.5414
1538.52	40.7292
1539.15	42.9982
1539.79	37.9923
1540.42	37.0112
1541.05	43.451
1541.69	42.9052
1542.32	38.7579
1542.95	43.6794
1543.59	40.2191
1544.22	37.3298
1544.85	43.3731
1545.49	43.3411
1546.12	43.8954
1546.75	45.6066
1547.39	40.4961
1548.02	44.1812
1548.65	47.8679
1549.28	43.8983
1549.92	44.1661
1550.55	42.496
1551.18	43.2517
1551.81	46.8411
1552.44	52.1575
1553.08	46.2096
1553.71	42.0931
1554.34	43.4896
1554.97	44.3837
1555.6	45.599
1556.24	46.222
1556.87	40.8826
1557.5	45.4384
1558.13	49.3353
1558.76	43.2037
1559.39	43.8505
1560.02	49.6336
1560.66	46.4959
1561.29	48.1103
1561.92	49.0184
1562.55	43.551
1563.18	43.8754
1563.81	49.2026
1564.44	42.3793
1565.07	43.0512
1565.7	46.584
1566.33	47.1415
1566.96	44.4418
1567.59	42.0822
1568.22	52.4691
1568.85	44.1236
1569.48	41.3066
1570.11	41.7522
1570.74	41.8274
1571.37	39.5262
1572	42.114
1572.63	52.4603
1573.26	48.8049
1573.89	44.4203
1574.52	52.5749
1575.15	47.9883
1575.78	52.4961
1576.41	50.1859
1577.04	52.652
1577.67	46.4962
1578.3	41.5678
1578.93	51.7234
1579.55	45.1839
1580.18	48.3984
1580.81	48.0904
1581.44	42.2943
1582.07	43.4692
1582.7	44.5337
1583.32	42.2765
1583.95	42.4964
1584.58	42.9107
1585.21	43.0294
1585.84	39.0609
1586.47	45.0372
1587.09	44.2026
1587.72	39.5934
1588.35	41.6528
1588.98	47.4097
1589.6	41.4946
1590.23	42.5089
1590.86	43.0645
1591.49	44.069
1592.11	49.053
1592.74	38.2343
1593.37	44.2914
1593.99	45.1675
1594.62	44.7708
1595.25	44.6582
1595.87	45.3657
1596.5	42.6489
1597.13	43.6493
1597.75	51.9591
1598.38	51.5113
1599.01	50.1397
1599.63	53.751
1600.26	53.3674
1600.89	54.2766
1601.51	53.5792
1602.14	52.9921
1602.76	59.2145
1603.39	63.7147
1604.02	65.6957
1604.64	64.9719
1605.27	69.8345
1605.89	75.3925
1606.52	71.8478
1607.14	82.7193
1607.77	79.3813
1608.39	75.8416
1609.02	76.0401
1609.64	75.2901
1610.27	70.0829
1610.89	74.8348
1611.52	63.6725
1612.14	59.5443
1612.77	65.5981
1613.39	63.3994
1614.02	68.111
1614.64	57.3997
1615.26	64.792
1615.89	63.3249
1616.51	55.3261
1617.14	55.7681
1617.76	55.7643
1618.38	56.3029
1619.01	64.4728
1619.63	65.0761
1620.26	67.249
1620.88	68.6564
1621.5	65.707
1622.13	65.1232
1622.75	67.8677
1623.37	63.1273
1624	64.9451
1624.62	72.0482
1625.24	61.8193
1625.87	60.145
1626.49	62.6891
1627.11	52.8798
1627.73	54.0002
1628.36	51.4691
1628.98	50.8915
1629.6	46.4163
1630.22	48.0641
1630.85	46.8684
1631.47	50.8455
1632.09	48.5639
1632.71	44.0377
1633.33	41.9324
1633.96	51.9465
1634.58	51.3073
1635.2	48.8674
1635.82	47.6539
1636.44	48.0894
1637.07	49.3763
1637.69	46.8915
1638.31	52.3779
1638.93	51.3592
1639.55	49.805
1640.17	49.8236
1640.79	52.2193
1641.41	53.444
1642.04	52.6299
1642.66	53.693
1643.28	54.4653
1643.9	60.3097
1644.52	54.3553
1645.14	61.5971
1645.76	58.5636
1646.38	61.8725
1647	63.4932
1647.62	67.8396
1648.24	64.372
1648.86	57.8912
1649.48	61.2908
1650.1	59.6948
1650.72	56.0903
1651.34	52.2105
1651.96	49.5556
1652.58	50.1916
1653.2	50.6325
1653.82	52.3913
1654.44	49.2098
1655.06	44.9069
1655.68	45.3022
1656.29	44.1488
1656.91	41.8108
1657.53	43.9524
1658.15	41.8846
1658.77	43.8865
1659.39	46.1147
1660.01	40.3322
1660.63	36.9577
1661.25	38.2334
1661.86	39.8389
1662.48	39.8451
1663.1	39.1085
1663.72	38.9968
1664.34	41.2749
1664.96	36.7629
1665.57	39.4878
1666.19	42.0631
1666.81	39.8317
1667.43	42.0527
1668.04	41.7229
1668.66	39.7852
1669.28	37.2249
1669.9	42.9695
1670.51	36.8621
1671.13	39.4131
1671.75	42.6735
1672.37	40.1592
1672.98	42.7647
1673.6	36.7391
1674.22	38.3241
1674.83	39.052
1675.45	34.7443
1676.07	35.6763
1676.68	36.6314
1677.3	34.9605
1677.92	35.4179
1678.53	36.0737
1679.15	35.9389
1679.77	36.2643
1680.38	35.0699
1681	35.43
1681.61	35.1243
1682.23	41.4012
1682.85	43.6403
1683.46	39.0638
1684.08	36.2912
1684.69	41.3946
1685.31	41.6434
1685.92	40.2546
1686.54	35.1517
1687.15	33.3415
1687.77	38.8608
1688.38	38.433
1689	34.9592
1689.61	36.7867
1690.23	36.0258
1690.84	39.341
1691.46	40.5111
1692.07	39.1986
1692.69	36.5492
1693.3	37.6042
1693.92	33.1109
1694.53	35.5404
1695.15	39.8757
1695.76	37.4987
1696.37	40.3068
1696.99	39.0599
1697.6	33.1925
1698.22	38.2902
1698.83	34.4587
1699.44	39.0517
1700.06	37.151
1700.67	40.1913
1701.28	36.0761
1701.9	40.9718
1702.51	31.773
1703.12	38.0173
1703.74	43.22
1704.35	39.2372
1704.96	37.2525
1705.58	34.1233
1706.19	35.2261
1706.8	34.3175
1707.42	37.2033
1708.03	36.5616
1708.64	36.8577
1709.25	34.9009
1709.87	36.3654
1710.48	36.1734
1711.09	39.7347
1711.7	37.7205
1712.31	28.6773
1712.93	36.928
1713.54	35.0141
1714.15	38.4131
1714.76	38.4004
1715.37	33.7928
1715.99	34.1864
1716.6	35.7941
1717.21	37.8008
1717.82	36.6118
1718.43	37.8845
1719.04	37.7197
1719.65	35.1445
1720.27	33.2745
1720.88	36.92
1721.49	32.0386
1722.1	35.2362
1722.71	34.0273
1723.32	38.415
1723.93	35.1661
1724.54	38.2166
1725.15	34.8454
1725.76	33.5929
1726.37	35.0205
1726.98	36.7343
1727.59	31.6241
1728.2	34.1948
1728.81	28.8013
1729.42	29.6702
1730.03	37.0817
1730.64	32.2062
1731.25	37.3754
1731.86	40.5047
1732.47	38.8887
1733.08	37.8191
1733.69	38.0178
1734.3	33.7005
1734.91	35.9089
1735.52	38.477
1736.13	36.9596
1736.74	36.454
1737.35	35.1634
1737.96	37.368
1738.57	35.684
1739.17	36.9451
1739.78	33.2712
1740.39	40.4968
1741	39.6991
1741.61	35.2168
1742.22	34.043
1742.83	32.638
1743.43	38.1668
1744.04	39.4588
1744.65	33.9816
1745.26	36.8524
1745.87	35.1277
1746.47	35.0443
1747.08	35.7374
1747.69	34.0798
1748.3	37.6935
1748.9	40.6937
1749.51	40.7058
1750.12	42.4323
1750.73	39.5212
1751.33	34.4963
1751.94	37.1695
1752.55	35.5709
1753.16	35.078
1753.76	35.8551
1754.37	33.2067
1754.98	40.1583
1755.58	40.77
1756.19	36.0539
1756.8	35.4897
1757.4	38.2713
1758.01	36.9964
1758.62	32.796
1759.22	34.8242
1759.83	35.189
1760.43	35.1013
1761.04	35.1957
1761.65	34.8982
1762.25	34.3156
1762.86	33.4725
1763.46	32.477
1764.07	30.9889
1764.68	36.4984
1765.28	36.8612
1765.89	33.5688
1766.49	35.1142
1767.1	35.2277
1767.7	33.9275
1768.31	34.1475
1768.91	36.4823
1769.52	36.1014
1770.12	36.3079
1770.73	35.7881
1771.33	35.8573
1771.94	37.4502
1772.54	33.7757
1773.15	36.9172
1773.75	39.1301
1774.36	38.3397
1774.96	32.4763
1775.56	36.4004
1776.17	38.9839
1776.77	38.3577
1777.38	36.2158
1777.98	36.5159
1778.58	35.0026
1779.19	36.9464
1779.79	36.7294
1780.4	34.1003
1781	35.7651
1781.6	33.8385
1782.21	32.1415
1782.81	35.4443
1783.41	35.4469
1784.02	35.0697
1784.62	33.9952
1785.22	35.4332
1785.82	37.4344
1786.43	34.7609
1787.03	33.9262
1787.63	35.6767
1788.24	35.1233
1788.84	34.5164
1789.44	33.3686
1790.04	32.2899
1790.65	32.7402
1791.25	33.9105
1791.85	35.6569
1792.45	37.6463
1793.05	36.2681
1793.66	34.7218
1794.26	36.3512
1794.86	33.6803
1795.46	29.4129
1796.06	30.1826
1796.67	29.9666
1797.27	29.972
1797.87	33.2242
1798.47	35.2732
1799.07	37.2774
1799.67	40.5221
1800.27	37.451
1800.88	33.7553
1801.48	36.9453
1802.08	39.5375
1802.68	37.2135
1803.28	32.2882
1803.88	32.7576
1804.48	35.8192
1805.08	39.3089
1805.68	36.5599
1806.28	36.0634
1806.88	38.229
1807.48	36.0961
1808.08	37.4183
1808.68	38.5039
1809.28	36.4574
1809.88	32.4317
1810.48	33.635
1811.08	36.2851
1811.68	36.5339
1812.28	36.35
1812.88	36.5662
1813.48	39.4884
1814.08	38.4155
1814.68	34.6553
1815.28	34.5345
1815.88	35.5909
1816.48	34.5287
1817.08	38.3769
1817.39	42.514
1817.99	36.5755
1818.59	40.4489
1819.19	32.5972
1819.79	30.6983
1820.4	36.5707
1821	38.511
1821.6	38.3701
1822.2	36.501
1822.8	32.5742
1823.4	30.6328
1824	40.0221
1824.6	37.7875
1825.2	28.5017
1825.8	34.4283
1826.4	38.1485
1827	34.1704
1827.6	38.0481
1828.2	32.8457
1828.8	34.6874
1829.4	34.4885
1830	34.5264
1830.6	32.6457
1831.2	34.4164
1831.8	32.9139
1832.4	34.5008
1833	34.3266
1833.6	32.4689
1834.2	37.7837
1834.8	34.677
1835.4	34.631
1835.99	32.5904
1836.59	38.1811
1837.19	36.7298
1837.79	38.3089
1838.39	43.2178
1838.99	34.1928
1839.59	30.5932
1840.18	35.4919
1840.78	32.0911
1841.38	34.1972
1841.98	34.7949
1842.58	34.8478
1843.18	30.5214
1843.77	37.4533
1844.37	35.942
1844.97	33.9634
1845.57	36.1602
1846.17	29.9128
1846.76	29.7562
1847.36	33.3073
1847.96	35.1067
1848.56	31.661
1849.15	29.0832
1849.75	33.3216
1850.35	33.8678
1850.95	32.3993
1851.54	34.2249
1852.14	36.8111
1852.74	33.1736
1853.33	35.5865
1853.93	34.6014
1854.53	34.5953
1855.12	37.3225
1855.72	32.5972
1856.32	39.062
1856.91	34.8147
1857.51	35.0473
1858.11	30.2034
1858.7	36.1332
1859.3	34.3722
1859.89	29.3227
1860.49	33.8581
1861.09	31.3125
1861.68	39.9254
1862.28	31.019
1862.87	33.8431
1863.47	37.1086
1864.06	27.2984
1864.66	36.7211
1865.26	30.8889
1865.85	30.8311
1866.45	34.525
1867.04	31.7694
1867.64	38.3549
1868.23	37.3793
1868.83	34.1898
1869.42	33.0995
1870.02	34.8353
1870.61	35.5544
1871.21	32.796
1871.8	34.9139
1872.4	32.9488
1872.99	31.4516
1873.58	34.8347
1874.18	32.4731
1874.77	41.7908
1875.37	32.7241
1875.96	36.4915
1876.56	32.7324
1877.15	33.0062
1877.74	34.4144
1878.34	30.7491
1878.93	32.2271
1879.52	35.819
1880.12	35.804
1880.71	32.1301
1881.3	35.1633
1881.9	34.115
1882.49	38.1644
1883.08	30.2762
1883.68	31.7819
1884.27	33.5795
1884.86	30.8222
1885.46	32.3277
1886.05	35.3445
1886.64	32.362
1887.23	32.7576
1887.83	33.7879
1888.42	35.2475
1889.01	35.3111
1889.61	35.4941
1890.2	38.3114
1890.79	35.3187
1891.38	32.5333
1891.97	35.1309
1892.57	32.4556
1893.16	30.9675
1893.75	35.5012
1894.34	34.8576
1894.93	34.3587
1895.53	35.8753
1896.12	35.4678
1896.71	34.1844
1897.3	33.7427
1897.89	32.9546
1898.48	31.6498
1899.07	32.7442
1899.67	34.0594
1900.26	31.0515
1900.85	34.2029
1901.44	35.6937
1902.03	33.3745
1902.62	32.5
1903.21	38.0805
1903.8	33.9214
1904.39	35.5502
1904.98	32.6007
1905.57	33.2395
1906.16	36.7373
1906.75	39.3235
1907.34	33.2667
1907.93	34.3053
1908.53	32.3046
1909.11	32.7107
1909.7	28.7231
1910.3	32.3105
1910.88	32.5007
1911.47	31.1147
1912.06	30.0581
1912.65	33.1203
1913.24	30.4867
1913.83	33.2935
1914.42	31.8238
1915.01	35.4659
1915.6	32.8125
1916.19	37.4657
1916.78	36.3019
1917.37	32.9858
1917.96	31.4481
1918.55	32.7468
1919.13	32.3025
1919.72	33.7311
1920.31	33.7345
1920.9	36.0299
1921.49	31.3056
1922.08	33.4231
1922.67	29.1748
1923.25	31.9133
1923.84	36.54
1924.43	35.304
1925.02	34.184
1925.61	34.3977
1926.19	29.8508
1926.78	32.0077
1927.37	32.0853
1927.96	27.885
1928.55	34.1081
1929.13	31.4723
1929.72	29.6626
1930.31	34.1351
1930.9	31.6254
1931.48	37.2952
1932.07	35.2941
1932.66	30.2343
1933.24	29.5712
1933.83	33.3032
1934.42	34.414
1935.01	32.0684
1935.59	26.4591
1936.18	27.4084
1936.77	32.4872
1937.35	39.3757
1937.94	38.2124
1938.53	33.2929
1939.11	34.3844
1939.7	31.2174
1940.28	29.3989
1940.87	30.3578
1941.46	33.3021
1942.04	31.3752
1942.63	36.2345
1943.21	30.3003
1943.8	30.3118
1944.39	32.3161
1944.97	36.3049
1945.56	30.3089
1946.14	31.2847
1946.73	35.2566
1947.31	34.2864
1947.9	33.25
1948.48	33.3262
1949.07	37.1926
1949.65	34.3547
1950.24	31.3284
1950.82	33.2573
1951.41	32.2597
1951.99	33.277
1952.58	31.277
1953.16	32.159
1953.75	31.3267
1954.33	34.9595
1954.92	32.4195
1955.5	33.2884
1956.08	33.0745
1956.67	32.5363
1957.25	35.8349
1957.84	31.639
1958.42	29.1479
1959.01	33.8547
1959.59	29.5639
1960.17	32.2073
1960.76	37.016
1961.34	29.4103
1961.92	31.122
1962.51	35.1856
1963.09	37.2545
1963.67	29.3954
1964.26	34.7467
1964.84	36.1794
1965.42	30.5307
1966.01	28.2945
1966.59	30.7138
1967.17	29.4479
1967.76	34.793
1968.34	35.303
1968.92	34.2942
1969.5	34.2744
1970.09	34.0015
1970.67	31.4354
1971.25	31.7225
1971.83	32.4506
1972.42	34.9636
1973	32.9985
1973.58	31.7602
1974.16	29.9534
1974.74	30.9566
1975.33	34.7731
1975.91	33.4638
1976.49	32.9368
1977.07	26.0364
1977.65	30.6792
1978.24	29.9029
1978.82	31.8969
1979.4	36.3238
1979.98	33.0917
1980.56	29.9059
1981.14	34.8531
1981.72	31.498
1982.3	34.4267
1982.89	31.7267
1983.47	31.244
1984.05	32.1913
1984.63	28.6061
1985.21	32.2584
1985.79	33.974
1986.37	29.8463
1986.95	33.0254
1987.53	32.8126
1988.11	35.5722
1988.69	33.3736
1989.27	31.8047
1989.85	33.4899
1990.43	36.0768
1991.01	36.1004
1991.59	31.0122
1992.17	34.8013
1992.75	33.5859
1993.33	32.683
1993.91	34.2152
1994.49	32.7477
1995.07	30.6188
1995.65	30.5535
1996.23	30.0657
1996.81	28.4151
1997.39	28.9478
1997.97	28.4848
1998.55	31.983
1999.13	32.6308
1999.71	32.5232
1999.89	34.005
