#Acq. time (s)=	15
#Accumulations=	2
#Range (cm-¹)=	10...2000
#Windows=	7
#Auto scanning=	On
#Autofocus=	Off
#AutoExposure=	Off
#Spike filter=	Multiple accum.
#Delay time (s)=	0
#Binning=	1
#Readout mode=	Signal
#DeNoise=	Off
#ICS correction=	Off
#Dark correction=	Off
#Inst. Process=	Off
#Detector Gain=	Best Dynamic Range
#Detector ADC=	45 kHz       
#Detector temperature (°C)=	-60.1
#Instrument=	LabRAM HR Evol
#Detector=	Syncerity OE
#Objective=	x100_VIS
#Grating=	600 (500nm)
#ND Filter=	100%
#Laser=	785nm_ULF
#Hole=	150.001
#Range=	Visible
#E-Cal_Neon=	0
#StageXY=	130x85mm Scan+
#StageZ=	Z motor
#X (µm)=	0
#Y (µm)=	0
#Z (µm)=	-913.6
#Spectral res.(cm-¹)=	5
#Full time(mm:ss)=	4:06
#AC=	Calibrated 2025-11-12 13:40
#Project=	POSA
#Sample=	20251112_PCM
#Site=	CMAC
#Title=	A4_20251112_PCM
#Remark=	
#Date=	12.11.2025 15:12
#Acquired=	12.11.2025 15:12:02
#AxisType[0]=Intens
#AxisUnit[0]=Cnt
#AxisType[1]=Spectr
#AxisUnit[1]=1/cm
10.0615	192
10.8907	191.311
11.7199	184.257
12.549	180.49
13.3779	174.177
14.2068	167.632
15.0355	169.772
15.8641	150.896
16.6927	156.726
17.5211	149.582
18.3484	156.333
19.1766	160.652
20.0047	164.984
20.8327	164.547
21.6605	171.966
22.4883	171.968
23.315	164.997
24.1425	156.838
24.97	144.5
25.7973	150.833
26.6245	147.065
27.4507	147.48
28.2777	143.04
29.1046	137.933
29.9314	139.089
30.7571	148.494
31.5837	146.723
32.4101	149.163
33.2365	159.22
34.0618	170.74
34.8879	181.196
35.714	200.405
36.5389	203.752
37.3648	207.231
38.1905	195.537
39.0151	184.156
39.8406	173.492
40.6651	163.983
41.4903	155.833
42.3155	158.222
43.1396	147.351
43.9646	149.102
44.7885	157.484
45.6132	154.087
46.4369	162.097
47.2614	162.016
48.0859	152.051
48.9092	149.122
49.7335	140.739
50.5566	133.872
51.3806	132.793
52.2035	136.536
53.0273	133.118
53.85	131.059
54.6726	130.554
55.4961	137.615
56.3185	133.916
57.1417	128.816
57.9639	141.116
58.787	141.392
59.6089	138.997
60.4308	129.902
61.2535	131.444
62.0751	130.808
62.8967	137.866
63.7191	140.106
64.5404	135.646
65.3616	146.279
66.1837	138.739
67.0047	140.639
67.8256	148.419
68.6473	144.345
69.468	146.218
70.2886	146
71.1091	162.021
71.9304	157.891
72.7507	172.061
73.5708	175.449
74.3909	177.449
75.2118	186.793
76.0316	185.419
76.8513	183.5
77.6709	185.462
78.4905	188.969
79.3099	190.782
80.1301	197.541
80.9493	198.077
81.7684	200.903
82.5874	204.002
83.4063	199.641
84.225	195.48
85.0437	192.695
85.8623	188.2
86.6807	183.567
87.4991	176.897
88.3173	176.367
89.1364	172.419
89.9544	179.922
90.7724	180.591
91.5902	179.131
92.4079	178.032
93.2255	178.93
94.043	182.485
94.8604	190.035
95.6767	196.412
96.4939	183.859
97.311	195.97
98.1279	201.406
98.9448	202.451
99.7616	198.457
100.578	204.377
101.395	214.428
102.211	216.915
103.028	220.541
103.844	206.978
104.659	217.907
105.475	214.23
106.291	217.576
107.107	222.207
107.922	214.193
108.737	213.032
109.552	201.692
110.368	194.809
111.183	196.699
111.998	186.714
112.812	172.48
113.627	165.676
114.442	173.168
115.257	173.254
116.071	156.549
116.885	160.712
117.7	153.995
118.513	151.198
119.327	153.608
120.141	144.897
120.954	145.537
121.768	137.323
122.582	139.549
123.395	142.442
124.209	128.523
125.021	140.064
125.834	133.237
126.648	131.451
127.46	125.269
128.273	130.257
129.085	129.521
129.898	115.617
130.71	125.299
131.522	129.484
132.334	122.555
133.146	115.457
133.958	124.351
134.77	125.957
135.581	122.455
136.393	128.268
137.204	115.459
138.016	122.114
138.827	114.592
139.638	112.912
140.449	117.474
141.259	112.007
142.071	115.967
142.881	122.364
143.692	120.838
144.502	106.063
145.312	105.833
146.123	107.133
146.932	108.81
147.742	105.165
148.552	98.7928
149.362	102.505
150.171	96.4609
150.981	103.847
151.79	98.4684
152.599	100.232
153.408	98.4794
154.218	93.0261
155.027	89.7974
155.835	93.8641
156.644	90.3705
157.452	92.3039
158.261	90.0588
159.069	91.1809
159.877	90.0491
160.685	89.9257
161.493	88.4872
162.301	86.2017
163.109	87.664
163.917	78.0465
164.724	77.6939
165.532	85.1441
166.339	82.4338
167.146	83.7489
167.953	81.4755
168.76	85.2338
169.567	85.4779
170.373	75.6978
171.18	84.011
171.987	80.5224
172.793	79.4356
173.599	77.5289
174.405	76.164
175.211	83.7911
176.017	76.6723
176.823	72.5981
177.629	80.17
178.435	77.3612
179.24	83.275
180.046	76.8428
180.851	74.4771
181.656	81.6732
182.461	75.2958
183.266	79.0769
184.07	78.867
184.875	84.9022
185.68	76.9012
186.485	77.9227
187.289	77.4097
188.094	78.196
188.898	77.3803
189.701	79.5958
190.505	70.2937
191.309	75.1384
192.113	71.6399
192.916	75.6606
193.72	73.4872
194.523	73.4833
195.327	73.4787
196.129	69.7121
196.932	67.6278
197.736	74.3401
198.538	78.352
199.341	71.6464
200.144	73.916
200.945	74.5599
201.748	62.7971
202.551	74.831
203.352	76.8612
204.155	79.3906
204.957	67.5579
205.758	83.906
206.56	74.7054
207.361	77.9278
208.163	79.3872
208.964	77.5932
209.765	78.6866
210.567	84.5987
211.367	73.4949
212.169	79.7816
212.969	79.486
213.77	81.658
214.57	83.4784
215.37	86.8539
216.171	73.3305
216.971	73.8491
217.771	83.923
218.571	80.98
219.371	80.1479
220.171	79.2391
220.971	77.524
221.77	79.8627
222.569	85.0622
223.369	78.4322
224.168	74.5949
224.967	76.4323
225.766	74.3021
226.565	72.3527
227.363	71.513
228.162	74.2519
228.961	70.1344
229.759	66.4979
230.558	65.6277
231.356	73.4328
232.154	73.3176
232.951	67.6128
233.75	70.6968
234.547	73.8611
235.345	74.2301
236.142	69.4593
236.939	62.5562
237.737	74.3529
238.534	72.2118
239.331	64.7672
240.128	72.523
240.925	75.6393
241.721	69.9494
242.518	72.5863
243.315	66.4789
244.112	62.6302
244.908	71.1259
245.704	70.567
246.5	68.6569
247.296	70.1467
248.092	74.3981
248.887	70.912
249.683	74.3412
250.478	71.1742
251.274	68.8413
252.069	72.997
252.864	75.2255
253.659	70.1345
254.454	67.0837
255.249	68.1461
256.044	65.4657
256.839	70.6776
257.633	72.3128
258.428	69.0458
259.222	70.9365
260.016	74.1278
260.81	66.8711
261.604	69.8263
262.398	74.8415
263.191	66.4964
263.985	69.1129
264.779	69.5049
265.571	68.888
266.365	67.9865
267.158	66.7162
267.952	63.9782
268.745	67.3527
269.537	72.271
270.33	70.5919
271.123	66.9292
271.915	65.3447
272.707	70.055
273.5	67.9269
274.292	66.7922
275.085	68.7799
275.876	66.807
276.668	67.8258
277.46	65.4079
278.251	67.9483
279.043	65.8788
279.834	62.8771
280.625	66.5093
281.417	72.7332
282.207	76.5854
282.999	69.0824
283.789	66.3066
284.58	70.5205
285.371	74.4311
286.161	75.0712
286.952	70.6811
287.742	69.2568
288.533	63.649
289.322	68.5245
290.113	70.2021
290.902	68.0893
291.692	66.453
292.481	72.7362
293.271	75.7347
294.06	71.185
294.85	70.8798
295.639	70.2549
296.428	73.8109
297.217	71.4107
298.006	75.5535
298.795	72.5282
299.584	72.9923
300.372	75.7815
301.161	76.662
301.949	77.3548
302.737	75.3516
303.525	75.3526
304.313	75.8223
305.101	70.3927
305.888	78.195
306.677	75.0837
307.464	70.987
308.251	77.4145
309.039	69.1971
309.826	73.9783
310.613	78.5694
311.4	82.4396
312.186	75.7148
312.974	70.5153
313.761	80.8191
314.547	75.2829
315.333	74.1509
316.119	74.0847
316.906	79.0474
317.693	81.9338
318.478	77.9624
319.264	69.4633
320.05	80.5584
320.836	81.9991
321.621	84.4471
322.406	84.0457
323.192	85.9346
323.977	81.1207
324.762	83.8391
325.547	85.9817
326.332	82.5798
327.117	76.942
327.902	87.5207
328.686	98.49
329.471	86.2439
330.255	87.6285
331.039	98.6112
331.824	95.6632
332.608	89.8436
333.392	93.8717
334.176	93.8227
334.96	91.4623
335.743	87.1412
336.526	85.1487
337.309	88.4006
338.093	83.9191
338.876	84.3389
339.659	87.2081
340.443	84.4843
341.225	85.5712
342.008	82.6747
342.79	83.0294
343.573	79.7104
344.356	79.664
345.137	83.5602
345.92	81.6953
346.702	81.6617
347.484	85.0825
348.266	82.1561
349.048	81.7923
349.83	77.481
350.61	82.6941
351.392	78.9577
352.174	78.6362
352.954	83.3756
353.736	84.2387
354.517	80.1562
355.298	83.2852
356.079	78.2186
356.859	78.8138
357.64	77.5124
358.421	75.3763
359.201	82.9241
359.981	82.2888
360.761	86.2411
361.541	82.5171
362.321	78.2288
363.101	79.9303
363.88	83.9185
364.66	84.8376
365.439	78.6887
366.219	74.755
366.998	75.1041
367.778	73.6349
368.556	74.7592
369.335	81.3647
370.114	78.6941
370.893	80.3713
371.672	85.9005
372.45	84.5388
373.228	81.5927
374.007	80.261
374.785	77.979
375.563	75.6518
376.341	75.8848
377.119	78.6236
377.896	81.7077
378.674	81.2283
379.452	86.0793
380.229	84.8735
381.006	82.0622
381.784	78.2158
382.561	75.5689
383.338	76.9655
384.114	74.4232
384.892	71.8581
385.668	76.1528
386.445	83.9687
387.221	88.0669
387.997	87.2901
388.774	88.3188
389.55	91.0492
390.326	90.8175
391.102	87.2387
391.878	94.8233
392.653	93.1883
393.429	87.6693
394.204	82.086
394.98	85.9067
395.755	83.491
396.53	74.5536
397.305	77.3697
398.081	79.1719
398.856	83.0101
399.63	83.2358
400.405	82.911
401.179	83.0219
401.953	82.3112
402.727	80.1913
403.502	78.2435
404.276	81.9009
405.05	79.4695
405.824	72.8935
406.598	78.5973
407.371	80.3999
408.145	78.5495
408.919	77.0598
409.692	75.8722
410.465	77.1374
411.238	85.3093
412.011	78.8827
412.784	74.0721
413.557	76.5446
414.329	75.6887
415.102	75.9396
415.875	74.3366
416.647	77.7105
417.42	77.063
418.191	70.6871
418.964	70.5676
419.736	77.55
420.507	84.114
421.279	80.6277
421.868	79.0728
422.641	79.0631
423.416	65.1693
424.189	75.1033
424.964	77.0719
425.737	67.1033
426.511	74.9597
427.284	71.0205
428.058	75.0728
428.831	67.2371
429.605	67.1451
430.378	74.8995
431.15	80.8944
431.924	73.0863
432.696	78.7022
433.469	71.0612
434.242	73.2297
435.014	71.3399
435.787	82.8219
436.559	69.3658
437.331	69.3358
438.103	71.1722
438.875	74.8075
439.646	71.0302
440.419	71.08
441.19	78.7122
441.962	70.9276
442.733	61.395
443.505	73.0152
444.276	76.8862
445.047	76.778
445.817	69.3001
446.589	65.6125
447.36	72.791
448.13	71.1848
448.9	75.1333
449.671	82.2184
450.441	72.8036
451.212	69.5805
451.982	80.8193
452.752	75.2258
453.522	73.0109
454.292	74.6057
455.061	80.5695
455.831	71.4657
456.6	82.41
457.369	73.5147
458.14	87.2475
458.909	68.9768
459.678	72.1876
460.447	74.3984
461.216	78.7672
461.984	75.187
462.753	71.3878
463.522	70.6659
464.29	70.8331
465.059	68.8286
465.827	68.9554
466.595	69.0113
467.362	63.1428
468.13	66.6637
468.898	66.5632
469.666	66.7765
470.434	64.0877
471.201	67.7199
471.969	68.9525
472.736	65.2422
473.503	69.2686
474.271	65.7143
475.037	58.4083
475.804	73.3868
476.571	67.2467
477.338	65.6198
478.104	70.6678
478.87	66.0411
479.637	68.1371
480.403	69.3482
481.17	73.7157
481.935	61.1487
482.701	65.4605
483.467	64.212
484.233	63.3741
484.998	66.0578
485.764	71.3981
486.53	62.6066
487.294	62.5611
488.06	67.0219
488.825	73.6916
489.59	66.3174
490.355	71.6343
491.12	64.7956
491.884	64.8987
492.649	71.6948
493.414	66.9992
494.178	66.0051
494.942	67.4769
495.706	66.2866
496.47	71.1717
497.234	67.2612
497.998	67.2252
498.761	67.8609
499.525	61.5823
500.289	64.1519
501.052	65.1554
501.816	73.2056
502.579	59.2319
503.342	75.4846
504.105	73.3673
504.868	74.1972
505.631	74.4966
506.393	76.5657
507.156	78.0541
507.918	79.8298
508.68	74.6401
509.443	72.595
510.205	66.8868
510.968	63.8865
511.729	66.0781
512.491	64.0901
513.253	68.6887
514.015	67.9807
514.776	62.5925
515.538	61.3741
516.299	65.6851
517.06	67.3114
517.822	73.7776
518.582	60.4455
519.343	71.5605
520.104	69.55
520.865	65.1253
521.626	65.3466
522.386	65.1602
523.146	57.9467
523.906	65.7524
524.667	62.5579
525.427	61.9112
526.187	64.9494
526.947	61.8761
527.706	67.161
528.466	65.3664
529.225	67.7669
529.986	64.8045
530.745	62.8398
531.504	64.2882
532.263	64.2155
533.022	64.845
533.781	60.3246
534.54	67.4665
535.298	62.8024
536.057	60.5009
536.816	61.6833
537.574	63.6131
538.332	63.6825
539.091	66.0866
539.849	60.5108
540.607	64.2499
541.365	64.4179
542.122	60.5445
542.88	63.4216
543.638	72.8429
544.395	70.4657
545.153	63.4948
545.91	68.4124
546.668	68.8177
547.424	64.1791
548.181	66.0691
548.938	65.7249
549.695	65.2292
550.452	67.5265
551.208	70.6453
551.965	62.996
552.721	64.5136
553.477	60.0764
554.234	66.4147
554.99	70.4618
555.745	64.5052
556.501	62.5145
557.257	73.6552
558.013	65.7203
558.768	70.4122
559.523	71.2367
560.279	66.451
561.035	60.0241
561.789	71.602
562.544	69.0803
563.3	64.2835
564.054	66.9693
564.809	64.466
565.564	66.0856
566.318	64.4354
567.073	65.3804
567.826	60.915
568.581	64.6662
569.335	68.136
570.089	68.6607
570.843	66.7021
571.596	63.1948
572.35	63.9225
573.104	59.5106
573.857	64.9988
574.61	66.3036
575.364	64.7854
576.117	66.3933
576.87	59.3404
577.623	61.8949
578.376	68.9646
579.129	63.2055
579.882	66.0113
580.634	53.4473
581.386	69.5839
582.139	63.3454
582.891	63.5464
583.643	67.1599
584.395	64.8323
585.147	64.058
585.899	63.22
586.651	62.3752
587.402	63.8767
588.154	61.0121
588.905	60.7413
589.656	58.5965
590.408	56.4729
591.159	63.9805
591.91	57.7512
592.661	62.4324
593.412	64.5649
594.163	61.9118
594.913	65.4727
595.663	64.1238
596.414	64.0592
597.164	66.3603
597.914	64.3597
598.664	64.2463
599.414	66.3458
600.165	65.2297
600.915	63.4005
601.664	66.1038
602.414	65.1556
603.163	62.2269
603.912	67.4285
604.662	65.8107
605.411	59.5511
606.16	63.5694
606.909	67.8537
607.658	63.0682
608.407	62.7426
609.156	59.1535
609.904	63.0513
610.653	65.7551
611.401	68.4261
612.149	67.8793
612.898	63.2418
613.646	68.2135
614.394	70.144
615.141	68.3394
615.888	62.1512
616.636	64.975
617.384	62.356
618.131	64.5296
618.879	65.9546
619.626	68.5839
620.373	65.0484
621.121	59.313
621.868	64.1801
622.614	67.5593
623.361	64.2496
624.107	70.4117
624.854	66.1009
625.601	74.0569
626.346	68.9925
627.093	73.2012
627.839	73.8236
628.585	71.1472
629.331	70.4967
630.077	70.092
630.823	66.3444
631.569	68.6993
632.313	67.7122
633.059	65.2851
633.805	70.5532
634.549	61.0528
635.295	59.839
636.04	64.0052
636.784	60.6621
637.53	60.9159
638.275	65.5828
639.019	66.3684
639.764	63.6399
640.507	61.1213
641.252	68.6099
641.997	60.1784
642.74	68.0969
643.485	66.7646
644.228	66.6105
644.972	70.0426
645.716	69.3305
646.46	71.1618
647.203	76.8485
647.947	76.7399
648.69	71.8702
649.433	72.3996
650.176	72.3341
650.919	68.3876
651.662	67.5731
652.404	66.6813
653.148	69.1018
653.89	64.7832
654.633	63.9175
655.375	64.4684
656.117	64.2678
656.86	60.7933
657.601	57.206
658.343	61.575
659.086	63.904
659.827	59.289
660.568	62.6242
661.311	58.2002
662.052	59.3963
662.793	60.866
663.535	65.3939
664.276	59.1267
665.017	56.8775
665.758	63.6305
666.498	62.6286
667.24	62.6816
667.98	60.6264
668.721	58.5625
669.461	63.4965
670.201	64.4075
670.942	60.0471
671.682	59.2447
672.422	61.3717
673.162	65.5079
673.902	63.7285
674.642	65.6822
675.381	57.1193
676.121	59.2813
676.86	65.3488
677.6	62.6578
678.339	63.2111
679.079	60.409
679.818	61.2885
680.557	64.5491
681.296	63.7612
682.035	62.5023
682.773	66.3599
683.512	59.7249
684.249	57.167
684.988	61.0797
685.726	61.9163
686.464	62.3506
687.203	59.1038
687.941	60.3766
688.679	60.3054
689.417	59.7791
690.154	59.1014
690.892	62.2787
691.63	59.4746
692.366	60.7125
693.104	63.0354
693.841	62.5739
694.578	66.024
695.315	66.3444
696.052	64.7129
696.789	65.1787
697.526	65.9597
698.262	65.3207
698.998	63.8956
699.735	64.219
700.471	61.2707
701.208	57.5834
701.943	53.178
702.679	55.6414
703.416	57.2567
704.151	59.5539
704.887	59.2673
705.623	59.5779
706.358	61.2941
707.093	62.3167
707.829	62.6426
708.564	59.8009
709.299	56.3777
710.034	61.1805
710.769	62.4985
711.504	63.3523
712.238	66.1025
712.973	64.9459
713.707	59.9009
714.442	61.9793
715.176	65.5568
715.911	63.5702
716.644	60.4573
717.379	60.1627
718.112	59.5665
718.846	56.0711
719.58	57.5403
720.313	59.8119
721.047	62.5633
721.78	57.215
722.514	58.9289
723.247	63.1194
723.979	64.0543
724.713	58.5549
725.446	55.7125
726.179	56.6201
726.911	57.882
727.644	55.1685
728.376	57.8878
729.109	56.6687
729.841	58.5492
730.573	62.675
731.306	61.8009
732.038	60.4956
732.769	57.7286
733.501	60.3304
734.233	53.3441
734.965	59.7132
735.696	60.8364
736.427	51.9709
737.158	53.6022
737.89	55.0092
738.621	54.3265
739.352	54.6331
740.083	56.1092
740.814	53.7055
741.544	56.9779
742.275	61.4671
743.005	55.9088
743.737	58.4353
744.467	53.6144
745.197	54.4134
745.927	61.9484
746.657	58.8237
747.387	59.6682
748.117	56.8911
748.847	52.2964
749.576	51.4972
750.306	57.078
751.035	55.579
751.765	63.9949
752.494	60.4887
753.223	59.4543
753.952	54.0182
754.681	51.1979
755.41	58.298
756.138	59.0778
756.867	49.4536
757.596	60.9636
758.324	57.6901
759.053	51.6631
759.781	60.5711
760.509	54.8032
761.237	55.995
761.965	53.0347
762.693	54.651
763.421	60.3984
764.148	55.4002
764.876	59.2987
765.604	51.3364
766.331	55.3276
767.058	59.1143
767.785	60.1682
768.513	51.2023
769.24	60.0392
769.966	58.1354
770.693	58.6655
771.42	51.8706
772.146	59.0988
772.873	52.7608
773.6	48.6005
774.326	53.1551
775.052	51.0431
775.778	53.5206
776.504	56.8863
777.231	58.3936
777.956	55.1876
778.682	58.4728
779.407	60.9902
780.133	57.2931
780.858	60.6125
781.584	54.5072
782.309	51.3661
783.034	54.777
783.759	55.1197
784.484	53.4187
785.209	59.1795
785.934	65.6698
786.658	53.262
787.382	56.7423
788.107	55.301
788.831	60.8118
789.556	62.5855
790.28	57.1237
791.004	59.0398
791.728	60.6617
792.452	51.3115
793.175	54.9789
793.9	58.9917
794.623	59.131
795.346	64.8875
796.07	63.0357
796.793	69.0003
797.516	74.8259
798.24	71.0278
798.963	67.2749
799.685	78.6688
800.408	76.9843
801.13	73.1559
801.854	65.2769
802.576	72.6432
803.298	63.3248
804.021	72.5639
804.049	72.9761
804.774	64.976
805.498	56.9781
806.223	66.9504
806.947	58.9543
807.672	62.913
808.396	60.9567
809.12	59.0006
809.844	57.12
810.568	56.9101
811.292	66.8253
812.016	62.8784
812.74	58.8743
813.463	51.2557
814.187	51.2862
814.91	61.0822
815.634	55.2691
816.357	57.0784
817.08	55.4343
817.802	63.0923
818.525	57.04
819.248	59.0358
819.971	57.0833
820.694	58.9886
821.417	49.4994
822.138	57.468
822.861	51.4679
823.583	58.8311
824.305	55.2374
825.028	53.5056
825.749	57.325
826.471	56.9747
827.193	60.4476
827.915	62.2537
828.636	64.3998
829.357	64.5706
830.079	57.4401
830.8	65.0999
831.521	65.1362
832.242	55.2018
832.964	64.6999
833.684	63.1113
834.405	59.35
835.125	61.6443
835.846	67.3274
836.567	61.3379
837.287	51.9097
838.008	57.3516
838.727	60.8626
839.448	62.7619
840.168	62.9462
840.888	61.3314
841.608	59.1595
842.327	62.45
843.047	61.6215
843.766	61.2944
844.486	57.2721
845.205	62.8731
845.925	59.5967
846.643	63.2237
847.363	59.8456
848.082	61.5341
848.801	63.0712
849.519	54.3677
850.238	64.8316
850.957	65.0935
851.675	61.5838
852.394	63.4313
853.112	58.2997
853.83	56.5831
854.548	67.0012
855.266	66.4558
855.984	60.1971
856.702	67.3746
857.419	75.089
858.137	66.2563
858.855	75.5661
859.572	75.0548
860.289	76.9002
861.007	78.1245
861.724	84.6962
862.441	87.7756
863.158	78.7442
863.875	92.0187
864.592	78.3251
865.308	82.593
866.025	76.5066
866.741	74.9601
867.458	69.5162
868.174	70.662
868.89	69.2165
869.606	61.6836
870.322	59.5727
871.038	56.6502
871.754	62.2773
872.47	52.3928
873.186	60.5638
873.901	47.2428
874.616	58.6276
875.332	54.2143
876.047	51.8032
876.762	57.2238
877.477	59.7857
878.192	55.7978
878.907	56.7233
879.622	56.0479
880.336	48.4346
881.051	59.4911
881.765	56.7716
882.48	54.128
883.194	52.1832
883.908	55.2858
884.622	54.3
885.337	48.0539
886.051	55.1672
886.764	53.7226
887.477	56.9724
888.191	52.1484
888.905	51.4035
889.618	54.8401
890.332	54.1506
891.045	51.3596
891.758	59.4756
892.471	52.1545
893.184	58.5625
893.897	51.3973
894.61	52.2244
895.322	58.0207
896.035	52.4883
896.747	53.9911
897.46	48.7812
898.172	56.2502
898.884	55.9849
899.597	50.2814
900.309	50.557
901.02	58.7106
901.732	55.3561
902.444	59.3095
903.155	52.6035
903.867	54.3295
904.579	53.8715
905.29	56.6675
906.001	55.3459
906.712	54.0096
907.423	56.4212
908.135	52.9929
908.845	52.4442
909.556	50.4557
910.266	50.1473
910.977	57.2741
911.688	53.5054
912.398	53.0061
913.108	49.1174
913.819	57.3422
914.529	57.7552
915.239	56.1435
915.949	56.2961
916.659	55.6088
917.368	57.8891
918.078	58.5401
918.788	54.8814
919.498	57.2506
920.207	54.0068
920.916	53.294
921.625	49.8834
922.334	55.3525
923.044	58.2848
923.752	58.0454
924.461	53.8469
925.17	56.4692
925.878	53.8233
926.587	56.1644
927.296	53.8406
928.004	57.9639
928.712	51.8263
929.42	56.1738
930.128	54.1636
930.836	53.4979
931.544	55.0966
932.251	57.8809
932.96	58.3375
933.667	61.2088
934.374	54.1754
935.082	54.3035
935.789	57.612
936.497	54.1102
937.204	54.6694
937.911	54.4705
938.617	52.6474
939.324	57.8813
940.031	59.5287
940.737	61.456
941.445	59.2253
942.151	59.5845
942.857	57.1408
943.564	52.5911
944.27	54.825
944.976	58.9216
945.682	57.4308
946.388	56.9524
947.093	60.7734
947.799	57.7595
948.505	61.5539
949.21	60.9247
949.916	66.5644
950.621	65.609
951.326	63.1605
952.032	57.1675
952.737	56.4041
953.442	58.8041
954.146	53.2278
954.851	55.1871
955.556	56.2064
956.26	56.2901
956.965	63.1288
957.67	55.097
958.374	60.4042
959.078	64.5331
959.782	61.5125
960.486	62.3949
961.19	58.5084
961.894	58.1874
962.598	65.1643
963.301	62.8011
964.005	62.1738
964.709	58.7265
965.412	64.0988
966.115	65.1256
966.818	59.1777
967.522	62.7559
968.224	67.6906
968.927	63.0888
969.63	70.8865
970.333	71.7649
971.036	68.6349
971.738	62.1378
972.44	63.5859
973.143	62.8327
973.846	59.724
974.547	63.61
975.25	56.2079
975.951	65.0727
976.653	60.1723
977.355	59.1299
978.057	56.9319
978.758	58.2483
979.46	56.5723
980.162	63.4637
980.863	55.9081
981.564	58.714
982.265	61.8786
982.966	56.2384
983.667	61.4472
984.368	54.9312
985.069	56.9658
985.769	57.5993
986.471	65.9471
987.171	65.8578
987.871	60.9752
988.572	63.7924
989.272	61.6997
989.972	60.0095
990.672	52.2551
991.372	59.2107
992.072	63.7964
992.772	59.018
993.471	55.8324
994.171	61.8368
994.87	56.3502
995.57	64.1556
996.269	67.9448
996.969	61.3884
997.667	69.7887
998.366	60.2403
999.065	60.308
999.765	58.3411
1000.46	59.3012
1001.16	59.2978
1001.86	67.1666
1002.56	64.0345
1003.26	61.274
1003.96	66.6344
1004.65	61.5674
1005.35	62.8259
1006.05	62.6572
1006.75	65.1188
1007.45	60.7472
1008.14	63.1796
1008.84	66.0636
1009.54	64.7057
1010.24	62.3158
1010.93	61.0806
1011.63	67.8837
1012.33	64.1683
1013.03	64.9402
1013.72	59.2819
1014.42	62.0602
1015.12	68.8342
1015.81	70.8997
1016.51	69.5432
1017.21	66.2402
1017.9	70.0486
1018.6	65.8435
1019.29	63.9295
1019.99	64.8718
1020.69	61.3685
1021.38	65.1731
1022.08	72.5324
1022.77	62.1839
1023.47	70.0451
1024.17	66.5667
1024.86	68.8374
1025.56	69.9203
1026.25	65.3034
1026.95	67.3664
1027.64	64.7969
1028.34	68.1611
1029.03	66.0363
1029.73	66.8002
1030.42	63.8819
1031.12	66.1642
1031.81	61.6821
1032.51	64.0113
1033.2	67.0537
1033.9	64.2491
1034.59	68.0941
1035.28	72.7583
1035.98	67.399
1036.67	66.9134
1037.37	66.9125
1038.06	72.4496
1038.75	65.676
1039.45	65.492
1040.14	66.5104
1040.83	67.116
1041.53	71.5184
1042.22	72.5408
1042.91	68.7754
1043.61	62.5376
1044.3	64.2903
1044.99	69.0981
1045.69	67.7835
1046.38	69.7492
1047.07	62.5796
1047.76	65.2541
1048.46	67.5418
1049.15	64.6097
1049.84	74.4597
1050.53	72.8425
1051.22	69.7109
1051.92	72.4033
1052.61	67.6869
1053.3	72.5272
1053.99	63.92
1054.68	65.6802
1055.37	72.5838
1056.07	69.1964
1056.76	75.7944
1057.45	73.992
1058.14	68.8363
1058.83	72.23
1059.52	75.0958
1060.21	68.9525
1060.9	67.9415
1061.59	71.2495
1062.28	72.7619
1062.98	70.7837
1063.67	70.6766
1064.36	76.2268
1065.05	74.437
1065.74	73.655
1066.43	71.6946
1067.12	76.9637
1067.81	75.0831
1068.5	76.8223
1069.19	75.1233
1069.88	78.9798
1070.56	77.7692
1071.25	80.8913
1071.94	77.2883
1072.63	77.8205
1073.32	81.9346
1074.01	83.7793
1074.7	80.7302
1075.39	80.4034
1076.08	77.2589
1076.77	78.3624
1077.46	74.8793
1078.14	81.8734
1078.83	80.4415
1079.52	78.3476
1080.21	77.7683
1080.9	74.952
1081.58	82.8268
1082.27	78.6835
1082.96	79.6895
1083.65	82.2685
1084.34	79.6872
1085.02	81.5386
1085.71	83.0065
1086.4	86.8042
1087.09	89.281
1087.77	84.7194
1088.46	85.1548
1089.15	90.5199
1089.83	83.6663
1090.52	82.0942
1091.21	88.069
1091.9	85.0769
1092.58	88.5792
1093.27	90.8638
1093.95	91.2601
1094.64	90.5658
1095.33	92.5503
1096.01	88.6243
1096.7	87.8919
1097.39	85.68
1098.07	89.0122
1098.76	89.6189
1099.44	91.9122
1100.13	95.5277
1100.81	92.27
1101.5	87.0218
1102.18	86.2692
1102.87	90.6157
1103.56	88.7385
1104.24	86.5471
1104.93	95.254
1105.61	97.0297
1106.29	96.1463
1106.98	87.8149
1107.66	86.4689
1108.35	97.7796
1109.03	97.7399
1109.72	92.499
1110.4	94.689
1111.09	94.1056
1111.77	101.306
1112.45	99.9225
1113.14	93.97
1113.82	94.4181
1114.51	102.452
1115.19	94.8579
1115.87	89.4186
1116.56	95.7116
1117.24	98.234
1117.92	96.2572
1118.61	93.6015
1119.29	97.5848
1119.97	101.773
1120.66	101.539
1121.34	99.4207
1122.02	96.5362
1122.7	99.6846
1123.39	100.252
1124.07	99.0122
1124.75	100.322
1125.43	101.318
1126.12	106.046
1126.8	107.663
1127.48	100.087
1128.16	103.983
1128.84	109.324
1129.53	102.315
1130.21	98.0911
1130.89	104.058
1131.57	105.096
1132.25	106.405
1132.93	101.001
1133.61	100.64
1134.3	107.549
1134.98	108.555
1135.66	106.175
1136.34	104.503
1137.02	110.494
1137.7	110.971
1138.38	104.571
1139.06	102.794
1139.74	107.429
1140.42	108.093
1141.1	109.297
1141.78	116.134
1142.46	105.168
1143.14	103.173
1143.82	112.537
1144.5	117.839
1145.18	111.815
1145.86	109.274
1146.54	116.185
1147.22	114.83
1147.9	117.937
1148.58	113.979
1149.26	111.594
1149.94	117.811
1150.62	116.993
1151.3	118.498
1151.97	117.644
1152.65	116.031
1153.33	121.378
1154.01	123.407
1154.69	114.366
1155.37	125.248
1156.05	128.923
1156.72	128.223
1157.4	125.759
1158.08	133.08
1158.76	129.659
1159.44	128.5
1160.11	118.164
1160.79	122.272
1161.47	120.719
1162.15	121.159
1162.82	120.303
1163.5	118.306
1164.02	136.604
1164.7	132.618
1165.38	136.561
1166.06	116.771
1166.74	132.685
1167.42	136.772
1168.1	128.761
1168.78	144.472
1169.46	138.785
1170.14	142.708
1170.81	142.237
1171.49	134.756
1172.17	152.262
1172.85	142.502
1173.53	136.893
1174.21	144.768
1174.89	146.487
1175.56	136.587
1176.24	136.341
1176.92	136.537
1177.6	140.441
1178.27	141.925
1178.95	147.9
1179.63	140.489
1180.31	141.988
1180.99	140.892
1181.66	137.524
1182.34	131.472
1183.02	125.883
1183.7	136.487
1184.37	133.012
1185.05	142.774
1185.73	146.122
1186.4	146.583
1187.08	147.637
1187.76	147.931
1188.43	153.741
1189.11	151.769
1189.78	157.728
1190.46	137.278
1191.14	138.799
1191.81	143.923
1192.49	141.994
1193.17	146.737
1193.84	138.813
1194.52	140.448
1195.19	146.589
1195.87	131.132
1196.54	139.359
1197.22	142.079
1197.89	144.668
1198.57	137.328
1199.24	150.05
1199.92	150.845
1200.59	154.011
1201.27	152.225
1201.94	149.574
1202.62	163.514
1203.29	158.039
1203.97	144.059
1204.64	152.5
1205.32	159.42
1205.99	147.427
1206.67	138.301
1207.34	156.151
1208.01	157.765
1208.69	142.499
1209.36	149.483
1210.03	156.997
1210.71	152.047
1211.38	155.051
1212.06	153.666
1212.73	161.172
1213.4	155.664
1214.08	145.621
1214.75	159.528
1215.42	154.794
1216.09	167.56
1216.77	147.714
1217.44	151.26
1218.11	158.81
1218.79	159.37
1219.46	157.856
1220.13	163.091
1220.8	155.222
1221.47	165.62
1222.15	167.849
1222.82	169.307
1223.49	162.291
1224.16	173.566
1224.83	161.424
1225.51	179.806
1226.18	168.682
1226.85	162.325
1227.52	173.08
1228.19	172.411
1228.86	161.184
1229.54	167.024
1230.21	175.78
1230.88	167.793
1231.55	174.344
1232.22	171.02
1232.89	156.648
1233.56	164.699
1234.23	175.41
1234.9	171.399
1235.57	178.494
1236.24	163.242
1236.91	179.932
1237.58	162.972
1238.25	172.653
1238.92	165.103
1239.59	187.972
1240.26	188.441
1240.93	194.203
1241.6	185.377
1242.27	203.53
1242.94	190.708
1243.61	189.569
1244.28	197.69
1244.95	190.204
1245.62	177.782
1246.29	177.553
1246.96	187.418
1247.62	184.746
1248.29	179.424
1248.96	191.014
1249.63	183.9
1250.3	179.256
1250.97	180.18
1251.64	176.774
1252.3	179.464
1252.97	183.619
1253.64	187.885
1254.31	170.803
1254.98	192.797
1255.64	179.531
1256.31	191.901
1256.98	181.915
1257.65	176.895
1258.31	193.383
1258.98	185.966
1259.65	176.305
1260.32	176.775
1260.98	190.023
1261.65	200.511
1262.32	181.283
1262.98	196.908
1263.65	194.711
1264.32	203.199
1264.98	182.839
1265.65	173.926
1266.32	188.494
1266.98	188.923
1267.65	187.31
1268.32	196.925
1268.98	194.401
1269.65	197.174
1270.31	200.243
1270.98	201.114
1271.65	183.303
1272.31	191.72
1272.98	201.417
1273.64	203.642
1274.31	203.931
1274.97	200.588
1275.64	204.269
1276.3	203.119
1276.97	177.097
1277.63	207.867
1278.3	219.419
1278.96	208.371
1279.63	199.578
1280.29	201.399
1280.96	207.321
1281.62	212.915
1282.29	216.851
1282.95	210.288
1283.62	200.635
1284.28	208.267
1284.94	205.854
1285.61	203.48
1286.27	203.507
1286.94	215.912
1287.6	207.462
1288.26	208.965
1288.93	214.084
1289.59	214.262
1290.25	203.59
1290.92	218.431
1291.58	227.796
1292.24	229.203
1292.91	220.362
1293.57	224.566
1294.23	228.48
1294.89	225.629
1295.56	216.201
1296.22	230.422
1296.88	232.96
1297.54	227.315
1298.21	241.479
1298.87	222.35
1299.53	238.782
1300.19	238.191
1300.85	254.078
1301.52	252.094
1302.18	225.528
1302.84	251.906
1303.5	245.797
1304.16	242.936
1304.82	261.452
1305.49	259.056
1306.15	257.954
1306.81	263.505
1307.47	243.618
1308.13	264.809
1308.79	254.81
1309.45	252.502
1310.11	266.497
1310.77	280.497
1311.44	281.922
1312.1	276.92
1312.76	283.814
1313.42	279.843
1314.08	286.91
1314.74	291.604
1315.4	288.751
1316.06	296.683
1316.72	302.754
1317.38	311.632
1318.04	310.944
1318.7	305.488
1319.36	319.159
1320.02	317.674
1320.68	335.865
1321.33	340.908
1321.99	324.338
1322.65	344.615
1323.31	334.369
1323.97	346.395
1324.63	338.782
1325.29	340.686
1325.95	325.172
1326.61	338.195
1327.27	343.395
1327.92	335.528
1328.58	352.531
1329.24	338.185
1329.9	335.132
1330.56	339.26
1331.22	355.454
1331.87	351.811
1332.53	357.967
1333.19	346.744
1333.85	348.967
1334.5	357.187
1335.16	362.926
1335.82	368.437
1336.48	366.815
1337.13	361.001
1337.79	366.594
1338.45	366.411
1339.1	375.341
1339.76	370.406
1340.42	354.564
1341.08	361.182
1341.73	371.223
1342.39	375.259
1343.05	383.237
1343.7	374.053
1344.36	380.179
1345.02	381.244
1345.67	377.946
1346.33	395.397
1346.98	390.643
1347.64	395.666
1348.3	398.56
1348.95	380.238
1349.61	376.586
1350.26	396.571
1350.92	391.732
1351.57	415.947
1352.23	412.448
1352.88	408.731
1353.54	399.227
1354.19	401.085
1354.85	410.122
1355.5	406.187
1356.16	402.74
1356.81	415.97
1357.47	417.374
1358.12	416.857
1358.78	423.532
1359.43	407.031
1360.09	422.436
1360.74	420.679
1361.4	426.28
1362.05	417.314
1362.7	416.996
1363.36	420.077
1364.01	405.076
1364.67	418.753
1365.32	414.618
1365.97	426.522
1366.63	421.9
1367.28	424.751
1367.93	433.208
1368.59	424.707
1369.24	419.784
1369.89	420.649
1370.55	421.424
1371.2	424.88
1371.85	427.648
1372.5	429.654
1373.16	434.412
1373.81	435.927
1374.46	433.001
1375.12	426.992
1375.77	438.617
1376.42	432.286
1377.07	430.125
1377.72	429.103
1378.38	426.001
1379.03	421.83
1379.68	413.65
1380.33	415.142
1380.98	416.689
1381.64	417.83
1382.29	415.372
1382.94	421.515
1383.59	420.476
1384.24	417.675
1384.89	417.651
1385.54	413.056
1386.19	420.021
1386.84	411.932
1387.5	409.378
1388.15	422.769
1388.8	405.291
1389.45	410.58
1390.1	420.247
1390.75	420.034
1391.4	409.09
1392.05	416.933
1392.7	432.239
1393.35	420.564
1394	414.014
1394.65	403.335
1395.3	406.331
1395.95	411.311
1396.6	404.581
1397.25	410.949
1397.9	405.765
1398.55	399.74
1399.2	398.181
1399.85	402.295
1400.5	412.257
1401.14	410.954
1401.79	404.79
1402.44	399.087
1403.09	416.754
1403.74	394.712
1404.39	381.376
1405.04	402.233
1405.69	402.43
1406.33	390.252
1406.98	394.444
1407.63	404.308
1408.28	396.83
1408.93	396.113
1409.58	392.134
1410.22	393.378
1410.87	404.089
1411.52	384.549
1412.17	382.831
1412.81	393.468
1413.46	388.437
1414.11	376.868
1414.76	390.683
1415.4	384.31
1416.05	390.518
1416.7	383.249
1417.35	374.436
1417.99	362.199
1418.64	382.332
1419.29	383.522
1419.93	382.964
1420.58	384.614
1421.23	378.342
1421.87	377.232
1422.52	376.921
1423.17	378.855
1423.81	375.999
1424.46	369.667
1425.1	374.17
1425.75	385.874
1426.4	360.518
1427.04	358.336
1427.69	373.144
1428.33	349.439
1428.98	361.739
1429.62	365.779
1430.27	376.471
1430.91	371.666
1431.56	368.754
1432.2	350.128
1432.85	361.864
1433.49	356.533
1434.14	352.903
1434.78	362.079
1435.43	342.758
1436.07	370.355
1436.72	366.094
1437.36	366.39
1438.01	355.307
1438.65	353.585
1439.3	339.312
1439.94	345.933
1440.58	358.315
1441.23	345.228
1441.87	349.17
1442.52	357.979
1443.16	345.41
1443.8	320.572
1444.45	340.059
1445.09	324.198
1445.73	355.403
1446.38	349.679
1447.02	333.163
1447.66	349.364
1448.31	338.457
1448.95	337.434
1449.59	334.882
1450.24	335.545
1450.88	346.025
1451.52	337.053
1452.16	323.175
1452.81	335.358
1453.45	336.61
1454.09	334.469
1454.73	331.78
1455.37	314.062
1456.02	329.54
1456.66	331.393
1457.3	331.15
1457.94	326.379
1458.58	306.635
1459.23	314.126
1459.87	319.845
1460.51	321.927
1461.15	313.243
1461.79	311.124
1462.43	313.871
1463.08	313.82
1463.72	321.604
1464.36	309.105
1465	309.399
1465.64	321.869
1466.28	314.913
1466.92	316.481
1467.56	318.059
1468.2	311.156
1468.84	323.581
1469.48	313.226
1470.12	313.478
1470.76	314.734
1471.4	322.926
1472.04	308.853
1472.68	302.525
1473.32	300.714
1473.96	299.064
1474.6	316.048
1475.24	313.146
1475.88	304.551
1476.52	296.016
1477.16	306.851
1477.8	303.965
1478.44	318.101
1479.08	302.026
1479.72	290.069
1480.36	302.552
1481	306.191
1481.63	293.905
1482.27	294.163
1482.91	297.905
1483.55	302.439
1484.19	285.66
1484.83	286.526
1485.47	298.628
1486.1	297.087
1486.74	294.579
1487.38	290.431
1488.02	295.862
1488.66	308.393
1489.29	307.559
1489.93	296.097
1490.57	282.709
1491.21	295.552
1491.84	292.905
1492.48	290.359
1493.12	282.142
1493.76	284.108
1494.39	279.638
1495.03	276.752
1495.67	292.992
1496.3	293.709
1496.94	293.225
1497.58	287.66
1498.22	283.086
1498.85	293.179
1499.49	281.285
1500.12	284.575
1500.76	273.589
1501.4	279.135
1501.62	286.569
1502.26	290.454
1502.89	278.908
1503.53	284.858
1504.17	276.73
1504.81	280.445
1505.45	290.168
1506.08	272.893
1506.72	284.388
1507.36	272.74
1508	298.067
1508.64	299.745
1509.27	261.464
1509.91	281.931
1510.55	277.176
1511.19	265.379
1511.82	288.274
1512.46	275.439
1513.1	295.199
1513.73	271.331
1514.37	286.755
1515.01	280.494
1515.65	261.431
1516.28	277.642
1516.92	269.316
1517.56	280.527
1518.19	282.43
1518.83	276.976
1519.46	285.98
1520.1	262.556
1520.74	269.124
1521.37	284.412
1522.01	277.882
1522.65	280.56
1523.28	262.884
1523.92	272.75
1524.55	277.509
1525.19	273.46
1525.82	276.688
1526.46	280.541
1527.09	273.75
1527.73	283.031
1528.37	273.645
1529	262.352
1529.64	275.697
1530.27	267.867
1530.9	256.414
1531.54	275.037
1532.17	268.306
1532.81	267.095
1533.44	248.597
1534.08	261.839
1534.71	271.194
1535.35	265.826
1535.98	263.591
1536.62	274.398
1537.25	262.135
1537.88	263.665
1538.52	264.484
1539.15	260.956
1539.79	256.498
1540.42	256.066
1541.05	257.596
1541.69	261.255
1542.32	284.685
1542.95	254.081
1543.59	270.79
1544.22	269.651
1544.85	261.853
1545.49	273.519
1546.12	252.829
1546.75	259.352
1547.39	264.485
1548.02	268.698
1548.65	263.569
1549.28	250.384
1549.92	255.575
1550.55	263.708
1551.18	274.967
1551.81	252.752
1552.44	265.354
1553.08	253.653
1553.71	255.203
1554.34	264.647
1554.97	260.424
1555.6	266.439
1556.24	266.378
1556.87	256.662
1557.5	253.768
1558.13	237.881
1558.76	262.871
1559.39	261.236
1560.02	253.882
1560.66	257.932
1561.29	265.431
1561.92	253.952
1562.55	261.405
1563.18	253.336
1563.81	267.408
1564.44	263.933
1565.07	252.578
1565.7	249.742
1566.33	252.276
1566.96	253.62
1567.59	248.407
1568.22	266.059
1568.85	253.529
1569.48	247.362
1570.11	251.169
1570.74	242.369
1571.37	247.255
1572	246.41
1572.63	256.473
1573.26	246.136
1573.89	248.989
1574.52	240.321
1575.15	240.857
1575.78	243.258
1576.41	250.935
1577.04	250.326
1577.67	258.748
1578.3	233.514
1578.93	251.354
1579.55	236.017
1580.18	246.751
1580.81	247.058
1581.44	255.438
1582.07	237.441
1582.7	239.682
1583.32	242.487
1583.95	248.989
1584.58	251.142
1585.21	246.312
1585.84	247.019
1586.47	228.101
1587.09	237.983
1587.72	231.533
1588.35	241.464
1588.98	251.717
1589.6	242.825
1590.23	237.073
1590.86	250.298
1591.49	235.859
1592.11	246.413
1592.74	234.864
1593.37	235.198
1593.99	247.227
1594.62	241.99
1595.25	236.92
1595.87	238.496
1596.5	234.092
1597.13	256.123
1597.75	243.494
1598.38	237.742
1599.01	250.114
1599.63	249.875
1600.26	237.013
1600.89	237.699
1601.51	240.982
1602.14	244.759
1602.76	233.867
1603.39	248.599
1604.02	246.527
1604.64	251.045
1605.27	251.279
1605.89	256.213
1606.52	253.541
1607.14	255.124
1607.77	252.005
1608.39	232.577
1609.02	252.949
1609.64	245.618
1610.27	240.879
1610.89	241.133
1611.52	237.873
1612.14	234.65
1612.77	250.164
1613.39	249.539
1614.02	231.182
1614.64	241.576
1615.26	245.448
1615.89	238.254
1616.51	241.879
1617.14	250.314
1617.76	237.693
1618.38	244.413
1619.01	244.765
1619.63	243.35
1620.26	242.621
1620.88	237.299
1621.5	231.543
1622.13	220.808
1622.75	238.361
1623.37	230.157
1624	232.527
1624.62	233.385
1625.24	240.698
1625.87	234.482
1626.49	227.431
1627.11	236.626
1627.73	228.672
1628.36	233.077
1628.98	221.59
1629.6	221.334
1630.22	228.858
1630.85	225.828
1631.47	224.439
1632.09	222.425
1632.71	229.107
1633.33	224.391
1633.96	229.233
1634.58	213.799
1635.2	224.266
1635.82	231.285
1636.44	217.93
1637.07	221.777
1637.69	221.135
1638.31	219.328
1638.93	222.041
1639.55	228.431
1640.17	227.839
1640.79	233.764
1641.41	227.876
1642.04	227.717
1642.66	227.884
1643.28	228.318
1643.9	219.02
1644.52	216.962
1645.14	226.123
1645.76	226.541
1646.38	217.598
1647	228.995
1647.62	230.907
1648.24	230.985
1648.86	216.666
1649.48	224.831
1650.1	220.118
1650.72	216.854
1651.34	212.332
1651.96	221.746
1652.58	208.115
1653.2	211.201
1653.82	221.216
1654.44	217.473
1655.06	211.258
1655.68	209.604
1656.29	209.19
1656.91	216.31
1657.53	209.876
1658.15	207.088
1658.77	215.991
1659.39	220.597
1660.01	206.576
1660.63	207.5
1661.25	204.385
1661.86	201.424
1662.48	205.391
1663.1	203.053
1663.72	206.118
1664.34	208.233
1664.96	208.29
1665.57	211.629
1666.19	200.98
1666.81	196.133
1667.43	200.769
1668.04	204.914
1668.66	196.205
1669.28	197.305
1669.9	202.63
1670.51	202.733
1671.13	200.683
1671.75	204.064
1672.37	208.2
1672.98	209.816
1673.6	197.382
1674.22	208.995
1674.83	201.339
1675.45	197.007
1676.07	200.87
1676.68	201.014
1677.3	204.47
1677.92	196.944
1678.53	194.614
1679.15	197.633
1679.77	196.393
1680.38	191.88
1681	197.799
1681.61	191.95
1682.23	189.79
1682.85	192.294
1683.46	191.575
1684.08	188.275
1684.69	191.128
1685.31	185.209
1685.92	194.476
1686.54	187.082
1687.15	188.315
1687.77	194.581
1688.38	189.286
1689	194.733
1689.61	189.401
1690.23	190.501
1690.84	189.857
1691.46	192.597
1692.07	186.96
1692.69	187.971
1693.3	185.808
1693.92	178.677
1694.53	183.199
1695.15	183.774
1695.76	185.973
1696.37	178.855
1696.99	182.564
1697.6	173.069
1698.22	180.445
1698.83	185.928
1699.44	176.892
1700.06	184.791
1700.67	182.095
1701.28	182.917
1701.9	182.924
1702.51	176.003
1703.12	175.09
1703.74	174.406
1704.35	191.749
1704.96	184.12
1705.58	181.554
1706.19	178.967
1706.8	184.728
1707.42	181.78
1708.03	179.471
1708.64	180.647
1709.25	171.643
1709.87	179.495
1710.48	186.287
1711.09	179.056
1711.7	162.702
1712.31	178.208
1712.93	171.911
1713.54	184.406
1714.15	177.684
1714.76	177.112
1715.37	175.902
1715.99	175.503
1716.6	181.192
1717.21	176.316
1717.82	177.67
1718.43	176.195
1719.04	180.157
1719.65	176.842
1720.27	169.832
1720.88	175.573
1721.49	168.503
1722.1	169.294
1722.71	175.56
1723.32	183.554
1723.93	161.225
1724.54	180.174
1725.15	169.885
1725.76	169.335
1726.37	174.166
1726.98	168.498
1727.59	167.038
1728.2	173.016
1728.81	166.157
1729.42	163.018
1730.03	174.71
1730.64	171.356
1731.25	160.198
1731.86	162.305
1732.47	167.463
1733.08	155.704
1733.69	164.304
1734.3	173.574
1734.91	167.943
1735.52	164.22
1736.13	166.351
1736.74	163.869
1737.35	164.518
1737.96	165.768
1738.57	160.242
1739.17	168.303
1739.78	161.538
1740.39	162.583
1741	169.808
1741.61	166.362
1742.22	174.277
1742.83	168.299
1743.43	154.347
1744.04	161.339
1744.65	164.306
1745.26	156.037
1745.87	165.901
1746.47	156.257
1747.08	150.849
1747.69	162.306
1748.3	164.206
1748.9	165.034
1749.51	168.579
1750.12	168.17
1750.73	156.59
1751.33	164.814
1751.94	157.415
1752.55	161.201
1753.16	157.337
1753.76	158.781
1754.37	150.187
1754.98	161.496
1755.58	152.479
1756.19	153.91
1756.8	154.398
1757.4	150.731
1758.01	158.247
1758.62	149.74
1759.22	159.698
1759.83	156.664
1760.43	161.635
1761.04	159.218
1761.65	161.438
1762.25	156.097
1762.86	153.854
1763.46	153.962
1764.07	163.814
1764.68	148.929
1765.28	152.834
1765.89	156.4
1766.49	155.788
1767.1	160.492
1767.7	159.125
1768.31	156.996
1768.91	150.951
1769.52	147.015
1770.12	147.839
1770.73	152.652
1771.33	154.828
1771.94	153.246
1772.54	159.438
1773.15	158.777
1773.75	153.632
1774.36	152.039
1774.96	158.566
1775.56	153.99
1776.17	155.279
1776.77	158.201
1777.38	157.563
1777.98	141.777
1778.58	149.614
1779.19	155.067
1779.79	152.271
1780.4	151.182
1781	157.268
1781.6	149.952
1782.21	151.927
1782.81	147.817
1783.41	150.522
1784.02	149.975
1784.62	153.404
1785.22	147.921
1785.82	147.404
1786.43	147.799
1787.03	152.034
1787.63	151.051
1788.24	146.455
1788.84	148.696
1789.44	152.647
1790.04	149.232
1790.65	145.138
1791.25	146.329
1791.85	153.432
1792.45	150.901
1793.05	155.834
1793.66	158.422
1794.26	149.613
1794.86	154.923
1795.46	155.747
1796.06	148.363
1796.67	151.91
1797.27	151.869
1797.87	147.86
1798.47	153.323
1799.07	152.062
1799.67	155.154
1800.27	153.127
1800.88	149.561
1801.48	150.136
1802.08	144.207
1802.68	145.362
1803.28	144.211
1803.88	140.412
1804.48	151.342
1805.08	155.273
1805.68	148.355
1806.28	147.593
1806.88	150.59
1807.48	158.374
1808.08	154.098
1808.68	145.429
1809.28	145.963
1809.88	147.23
1810.48	148.229
1811.08	146.752
1811.68	145.061
1812.28	149.872
1812.88	146.997
1813.48	143.188
1814.08	147.217
1814.68	150.001
1815.28	150.118
1815.88	146.989
1816.48	153.665
1817.08	162.898
1817.39	163.935
1817.99	148.05
1818.59	148.131
1819.19	140.273
1819.79	142.307
1820.4	159.912
1821	150.165
1821.6	153.802
1822.2	140.424
1822.8	144.593
1823.4	133.015
1824	156.344
1824.6	158.081
1825.2	136.787
1825.8	152.189
1826.4	148.488
1827	143.203
1827.6	144.944
1828.2	142.706
1828.8	155.445
1829.4	153.936
1830	140.527
1830.6	150.682
1831.2	149.897
1831.8	155.402
1832.4	147.317
1833	148.346
1833.6	153.932
1834.2	145.114
1834.8	150.03
1835.4	135.444
1835.99	149.502
1836.59	150.072
1837.19	149.191
1837.79	143.667
1838.39	153.975
1838.99	145.634
1839.59	148.23
1840.18	146.228
1840.78	156.714
1841.38	143.823
1841.98	148.312
1842.58	146.401
1843.18	149.19
1843.77	144.949
1844.37	151.282
1844.97	138.352
1845.57	156.894
1846.17	146.939
1846.76	140.57
1847.36	137.881
1847.96	142.095
1848.56	140.83
1849.15	155.683
1849.75	139.378
1850.35	147.863
1850.95	158.386
1851.54	144.761
1852.14	149.625
1852.74	142.803
1853.33	143.813
1853.93	136.334
1854.53	154.251
1855.12	147.103
1855.72	148.111
1856.32	142.009
1856.91	142.936
1857.51	151.089
1858.11	152.481
1858.7	147.874
1859.3	143.715
1859.89	140.064
1860.49	149.968
1861.09	145.733
1861.68	139.698
1862.28	143.812
1862.87	148.416
1863.47	142.887
1864.06	145.026
1864.66	143.326
1865.26	142.29
1865.85	146.905
1866.45	140.26
1867.04	144.231
1867.64	141.956
1868.23	144.597
1868.83	141.949
1869.42	147.141
1870.02	143.936
1870.61	142.106
1871.21	145.754
1871.8	137.025
1872.4	135.765
1872.99	144.004
1873.58	133.756
1874.18	132.921
1874.77	135.523
1875.37	130.656
1875.96	132.479
1876.56	134.8
1877.15	136.537
1877.74	140.009
1878.34	145.564
1878.93	140.22
1879.52	148.118
1880.12	140.93
1880.71	140.686
1881.3	144.866
1881.9	134.491
1882.49	138.918
1883.08	135.292
1883.68	130.061
1884.27	131.58
1884.86	131.716
1885.46	136.01
1886.05	140.521
1886.64	136.042
1887.23	142.822
1887.83	132.401
1888.42	134.241
1889.01	137.619
1889.61	136.722
1890.2	134.779
1890.79	132.535
1891.38	135.315
1891.97	130.438
1892.57	136.707
1893.16	123.552
1893.75	137.472
1894.34	142.82
1894.93	137.855
1895.53	133.498
1896.12	133.342
1896.71	133.999
1897.3	128.352
1897.89	141.126
1898.48	134.195
1899.07	133.365
1899.67	133.307
1900.26	131.304
1900.85	132.762
1901.44	129.102
1902.03	128.105
1902.62	120.336
1903.21	129.668
1903.8	130.908
1904.39	123.428
1904.98	127.106
1905.57	132.685
1906.16	131.441
1906.75	129.163
1907.34	124.326
1907.93	128.448
1908.53	129.038
1909.11	125.747
1909.7	132.953
1910.3	136.964
1910.88	131.558
1911.47	123.286
1912.06	138.61
1912.65	130.438
1913.24	126.089
1913.83	126.308
1914.42	126.064
1915.01	125.906
1915.6	125.071
1916.19	126.729
1916.78	124.203
1917.37	128.282
1917.96	125.156
1918.55	128.325
1919.13	119.683
1919.72	114.568
1920.31	123.118
1920.9	123.579
1921.49	125.896
1922.08	125.017
1922.67	115.566
1923.25	120.303
1923.84	118.557
1924.43	119.165
1925.02	123.657
1925.61	116.339
1926.19	111.905
1926.78	121.252
1927.37	118.67
1927.96	118.483
1928.55	123.563
1929.13	122.483
1929.72	123.393
1930.31	120.232
1930.9	112.586
1931.48	118.332
1932.07	113.192
1932.66	114.682
1933.24	109.722
1933.83	115.453
1934.42	117.319
1935.01	111.509
1935.59	114.613
1936.18	113.525
1936.77	114.524
1937.35	111.496
1937.94	106.56
1938.53	115.755
1939.11	111.39
1939.7	112.512
1940.28	111.805
1940.87	117.528
1941.46	119.395
1942.04	114.573
1942.63	111.524
1943.21	114.562
1943.8	107.587
1944.39	112.559
1944.97	111.555
1945.56	100.568
1946.14	109.551
1946.73	112.572
1947.31	107.62
1947.9	102.684
1948.48	102.542
1949.07	110.505
1949.65	105.602
1950.24	98.6794
1950.82	101.652
1951.41	103.554
1951.99	102.465
1952.58	106.67
1953.16	103.78
1953.75	103.529
1954.33	102.479
1954.92	108.914
1955.5	94.9051
1956.08	113.776
1956.67	101.296
1957.25	100.462
1957.84	101.787
1958.42	101.455
1959.01	105.728
1959.59	99.7623
1960.17	104.427
1960.76	102.785
1961.34	107.109
1961.92	94.9483
1962.51	95.4107
1963.09	95.0783
1963.67	90.2355
1964.26	98.8133
1964.84	98.9026
1965.42	102.135
1966.01	95.9999
1966.59	96.2968
1967.17	90.6103
1967.76	96.1185
1968.34	88.5681
1968.92	89.7412
1969.5	93.7073
1970.09	89.3948
1970.67	90.2526
1971.25	94.1352
1971.83	90.3458
1972.42	88.8874
1973	89.5773
1973.58	92.8624
1974.16	91.5614
1974.74	87.7798
1975.33	91.9539
1975.91	86.5173
1976.49	82.0879
1977.07	94.0286
1977.65	89.197
1978.24	79.4904
1978.82	89.6474
1979.4	88.1313
1979.98	87.9752
1980.56	88.9833
1981.14	87.7921
1981.72	94.9245
1982.3	80.7747
1982.89	82.938
1983.47	82.8552
1984.05	87.1826
1984.63	90.0442
1985.21	87.6487
1985.79	87.3176
1986.37	84.7162
1986.95	84.09
1987.53	84.0736
1988.11	86.1195
1988.69	86.3468
1989.27	83.3299
1989.85	78.9087
1990.43	83.8764
1991.01	78.3059
1991.59	78.9669
1992.17	80.969
1992.75	76.9393
1993.33	80.7799
1993.91	76.209
1994.49	80.5877
1995.07	79.5529
1995.65	77.2913
1996.23	73.0699
1996.81	80.872
1997.39	81.3771
1997.97	77.8297
1998.55	70.0502
1999.13	72.92
1999.71	73.4241
1999.89	72.0047
