#Acq. time (s)=	15
#Accumulations=	2
#Range (cm-¹)=	10...2000
#Windows=	7
#Auto scanning=	On
#Autofocus=	Off
#AutoExposure=	Off
#Spike filter=	Multiple accum.
#Delay time (s)=	0
#Binning=	1
#Readout mode=	Signal
#DeNoise=	Off
#ICS correction=	Off
#Dark correction=	Off
#Inst. Process=	Off
#Detector Gain=	Best Dynamic Range
#Detector ADC=	45 kHz       
#Detector temperature (°C)=	-60.1
#Instrument=	LabRAM HR Evol
#Detector=	Syncerity OE
#Objective=	x100_VIS
#Grating=	600 (500nm)
#ND Filter=	100%
#Laser=	785nm_ULF
#Hole=	150.001
#Range=	Visible
#E-Cal_Neon=	0
#StageXY=	130x85mm Scan+
#StageZ=	Z motor
#X (µm)=	0
#Y (µm)=	0
#Z (µm)=	-912.7
#Spectral res.(cm-¹)=	5
#Full time(mm:ss)=	4:10
#AC=	Calibrated 2025-11-12 13:40
#Project=	POSA
#Sample=	20251112_PCM
#Site=	CMAC
#Title=	A7_20251112_PCM
#Remark=	
#Date=	12.11.2025 15:03
#Acquired=	12.11.2025 15:03:58
#AxisType[0]=Intens
#AxisUnit[0]=Cnt
#AxisType[1]=Spectr
#AxisUnit[1]=1/cm
10.0615	482
10.8907	461.098
11.7199	453.71
12.549	434.352
13.3779	438.808
14.2068	430.72
15.0355	437.745
15.8641	433.155
16.6927	434.462
17.5211	445.009
18.3484	419.846
19.1766	437.03
20.0047	446.362
20.8327	449.077
21.6605	437.59
22.4883	436.127
23.315	449.775
24.1425	461.676
24.97	436.407
25.7973	437.969
26.6245	432.268
27.4507	434.935
28.2777	428.42
29.1046	427.399
29.9314	412.414
30.7571	396.063
31.5837	406.981
32.4101	389.744
33.2365	389.109
34.0618	405.348
34.8879	403.896
35.714	400.749
36.5389	408.795
37.3648	398.219
38.1905	387.748
39.0151	409.47
39.8406	385.71
40.6651	379.162
41.4903	369.295
42.3155	377.399
43.1396	381.596
43.9646	390.208
44.7885	369.421
45.6132	385.945
46.4369	385.113
47.2614	393.413
48.0859	394.024
48.9092	382.145
49.7335	399.625
50.5566	388.466
51.3806	386.602
52.2035	401.389
53.0273	390.26
53.85	379.055
54.6726	389.518
55.4961	350.171
56.3185	364.594
57.1417	379.102
57.9639	378.203
58.787	373.533
59.6089	366.595
60.4308	358.079
61.2535	356.936
62.0751	377.98
62.8967	356.881
63.7191	359.151
64.5404	374.871
65.3616	389.089
66.1837	367.828
67.0047	373.198
67.8256	382.867
68.6473	379.976
69.468	373.118
70.2886	360.138
71.1091	370.271
71.9304	376.013
72.7507	378.668
73.5708	355.451
74.3909	358.916
75.2118	364.518
76.0316	377.966
76.8513	368.957
77.6709	368.481
78.4905	359.123
79.3099	352.973
80.1301	350.114
80.9493	345.853
81.7684	348.877
82.5874	344.128
83.4063	340.714
84.225	329.615
85.0437	345.979
85.8623	327.456
86.6807	333.869
87.4991	343.131
88.3173	345.835
89.1364	337.833
89.9544	334.914
90.7724	328.251
91.5902	336.919
92.4079	329.534
93.2255	328.426
94.043	326.515
94.8604	305.791
95.6767	332.367
96.4939	316.73
97.311	325.162
98.1279	334.514
98.9448	338.999
99.7616	325.802
100.578	325.209
101.395	332.749
102.211	337.646
103.028	341.976
103.844	331.426
104.659	348.098
105.475	339.798
106.291	341.228
107.107	329.355
107.922	337.826
108.737	340.464
109.552	345.802
110.368	350.553
111.183	349.247
111.998	359.362
112.812	360.277
113.627	354.555
114.442	370.668
115.257	369.687
116.071	384.188
116.885	405.4
117.7	418.376
118.513	424.722
119.327	437.081
120.141	462.398
120.954	457.117
121.768	472.255
122.582	461.173
123.395	453.795
124.209	431.616
125.021	420.192
125.834	411.713
126.648	384.375
127.46	352.715
128.273	330.667
129.085	330.928
129.898	328.752
130.71	317.736
131.522	313.772
132.334	311.985
133.146	301.219
133.958	304.476
134.77	298.171
135.581	301.565
136.393	295.016
137.204	289.068
138.016	294.135
138.827	288.156
139.638	293.138
140.449	285.019
141.259	290.337
142.071	293.466
142.881	298.183
143.692	284.853
144.502	264.683
145.312	287.727
146.123	265.607
146.932	270.203
147.742	257.397
148.552	262.708
149.362	258.017
150.171	253.891
150.981	244.898
151.79	237.916
152.599	249.029
153.408	234.542
154.218	231.152
155.027	232.995
155.835	233.226
156.644	223.129
157.452	227.369
158.261	238.614
159.069	232.281
159.877	222.19
160.685	223.528
161.493	218.451
162.301	225.691
163.109	224.548
163.917	211.969
164.724	214.496
165.532	214.389
166.339	224.228
167.146	218.454
167.953	217.114
168.76	209.269
169.567	212.168
170.373	220.6
171.18	216.249
171.987	232.198
172.793	212.878
173.599	213.36
174.405	206.77
175.211	197.514
176.017	201.84
176.823	202.445
177.629	201.451
178.435	206.184
179.24	206.632
180.046	207.906
180.851	203.857
181.656	207.935
182.461	202.823
183.266	199.393
184.07	201.091
184.875	200.609
185.68	193.457
186.485	205.941
187.289	192.93
188.094	208.067
188.898	198.727
189.701	201.276
190.505	200.044
191.309	201.872
192.113	196.192
192.916	210.15
193.72	194.824
194.523	196.647
195.327	199.622
196.129	194.966
196.932	192.232
197.736	207.975
198.538	204.467
199.341	192.651
200.144	201.015
200.945	202.27
201.748	194.117
202.551	197.515
203.352	191.919
204.155	210.994
204.957	201.636
205.758	200.853
206.56	188.566
207.361	200.947
208.163	202.314
208.964	195.796
209.765	186.42
210.567	185.111
211.367	198.565
212.169	190.578
212.969	197.14
213.77	188.581
214.57	190.484
215.37	211.315
216.171	206.603
216.971	202.126
217.771	194.18
218.571	206.188
219.371	190.284
220.171	204.87
220.971	199.232
221.77	193.794
222.569	193.991
223.369	188.239
224.168	179.645
224.967	184.4
225.766	191.309
226.565	187.296
227.363	193.869
228.162	188.378
228.961	208.613
229.759	186.046
230.558	193.784
231.356	175.831
232.154	191.058
232.951	178.073
233.75	176.354
234.547	197.057
235.345	188.36
236.142	202.389
236.939	184.039
237.737	188.841
238.534	195.335
239.331	197.482
240.128	185.76
240.925	192.958
241.721	181.012
242.518	172.955
243.315	180.884
244.112	187.5
244.908	190.298
245.704	192.817
246.5	186.839
247.296	176.596
248.092	170.396
248.887	183.86
249.683	180.685
250.478	193.58
251.274	195.453
252.069	179.21
252.864	193.375
253.659	187.351
254.454	179.228
255.249	190.909
256.044	190.538
256.839	188.887
257.633	176.027
258.428	173.692
259.222	184.54
260.016	174.241
260.81	174.672
261.604	177.375
262.398	183.34
263.191	179.527
263.985	170.484
264.779	181.886
265.571	176.355
266.365	188.048
267.158	163.787
267.952	168.278
268.745	167.215
269.537	177.583
270.33	174.6
271.123	174.04
271.915	190.033
272.707	179.021
273.5	180.4
274.292	186.513
275.085	174.012
275.876	186.393
276.668	177.536
277.46	177.808
278.251	171.238
279.043	180.875
279.834	178.334
280.625	173.564
281.417	170.927
282.207	171.51
282.999	174.709
283.789	180.636
284.58	170.768
285.371	180.415
286.161	174.367
286.952	175.643
287.742	181.181
288.533	181.697
289.322	178.73
290.113	188.565
290.902	178.472
291.692	174.873
292.481	171.666
293.271	183.327
294.06	177.2
294.85	176.226
295.639	173.111
296.428	175.216
297.217	182.5
298.006	178.464
298.795	184.251
299.584	167.2
300.372	176.256
301.161	170.955
301.949	179.831
302.737	173.946
303.525	181.858
304.313	172.537
305.101	170.194
305.888	181.079
306.677	170.54
307.464	169.182
308.251	174.163
309.039	185.183
309.826	170.261
310.613	175.887
311.4	177.659
312.186	181.264
312.974	180.88
313.761	182.452
314.547	179.171
315.333	175.232
316.119	177.536
316.906	173.431
317.693	168.475
318.478	171.553
319.264	168.332
320.05	179.315
320.836	185.796
321.621	177.812
322.406	168.752
323.192	176.441
323.977	173.26
324.762	181.587
325.547	175.828
326.332	176.942
327.117	178.573
327.902	179.573
328.686	187.247
329.471	184.789
330.255	185.77
331.039	190.125
331.824	189.989
332.608	186.621
333.392	190.455
334.176	184.095
334.96	180.431
335.743	182.413
336.526	190.537
337.309	189.763
338.093	190.111
338.876	190.944
339.659	183.236
340.443	179.437
341.225	174.706
342.008	178.797
342.79	185.55
343.573	180.017
344.356	173.93
345.137	173.215
345.92	175.653
346.702	171.907
347.484	174.206
348.266	170.245
349.048	172.799
349.83	172.313
350.61	171.621
351.392	173.735
352.174	178.097
352.954	180.919
353.736	177.116
354.517	178.758
355.298	174.385
356.079	180.553
356.859	178.706
357.64	174.846
358.421	172.359
359.201	172.613
359.981	169.235
360.761	169.877
361.541	176.09
362.321	165.793
363.101	172.182
363.88	175.157
364.66	165.671
365.439	171.93
366.219	175.454
366.998	170.17
367.778	159.788
368.556	164.139
369.335	170.342
370.114	172.237
370.893	176.061
371.672	169.499
372.45	165.568
373.228	170.664
374.007	167.022
374.785	156.409
375.563	155.535
376.341	167.223
377.119	163.476
377.896	171.429
378.674	177.121
379.452	175.902
380.229	166.237
381.006	158.277
381.784	164.307
382.561	174.116
383.338	164.551
384.114	166.356
384.892	171.252
385.668	162.461
386.445	170.905
387.221	182.446
387.997	186.548
388.774	179.047
389.55	179.475
390.326	172.696
391.102	177.568
391.878	178.696
392.653	173.135
393.429	182.937
394.204	181.59
394.98	169.776
395.755	185.102
396.53	181.18
397.305	180.091
398.081	178.273
398.856	174.426
399.63	177.384
400.405	170.792
401.179	163.626
401.953	167.41
402.727	168.054
403.502	167.716
404.276	156.71
405.05	155.05
405.824	154.11
406.598	159.235
407.371	170.781
408.145	169.577
408.919	172.064
409.692	160.151
410.465	165.109
411.238	164.648
412.011	157.604
412.784	169.28
413.557	172.907
414.329	167.567
415.102	166.201
415.875	167.285
416.647	176.688
417.42	169.769
418.191	172.723
418.964	175.796
419.736	169.419
420.507	162.415
421.279	163.246
421.868	175.295
422.641	159.256
423.416	175.144
424.189	157.261
424.964	165.04
425.737	164.954
426.511	168.869
427.284	152.991
428.058	174.554
428.831	160.718
429.605	174.32
430.378	160.582
431.15	166.523
431.924	168.354
432.696	142.863
433.469	160.343
434.242	156.377
435.014	177.525
435.787	150.447
436.559	151.997
437.331	157.717
438.103	161.9
438.875	161.702
439.646	163.24
440.419	140.492
441.19	165.269
441.962	163.299
442.733	159.705
443.505	159.842
444.276	161.539
445.047	163.362
445.817	174.352
446.589	146.26
447.36	148.122
448.13	164.743
448.9	161.107
449.671	168.394
450.441	160.833
451.212	153.659
451.982	153.473
452.752	154.707
453.522	162.146
454.292	160.262
455.061	165.047
455.831	148.604
456.6	160.568
457.369	142.388
458.14	155.256
458.909	162.563
459.678	151.232
460.447	143.578
461.216	155.344
461.984	167.818
462.753	152.264
463.522	164.732
464.29	166.519
465.059	163.024
465.827	153.302
466.595	150.402
467.362	146.825
468.13	149.569
468.898	155.613
469.666	139.741
470.434	152.185
471.201	145.233
471.969	151.068
472.736	152.825
473.503	154.906
474.271	151.779
475.037	143.607
475.804	146.273
476.571	143.688
477.338	148.896
478.104	150.608
478.87	151.395
479.637	155.428
480.403	149.044
481.17	154.653
481.935	136.084
482.701	159.217
483.467	137.925
484.233	153.188
484.998	158.541
485.764	151.054
486.53	152.736
487.294	144.704
488.06	156.244
488.825	130.587
489.59	147.635
490.355	146.828
491.12	135.671
491.884	148.198
492.649	130.594
493.414	139.317
494.178	141.635
494.942	148.327
495.706	140.715
496.47	144.338
497.234	144.913
497.998	148
498.761	144.121
499.525	144.493
500.289	152.388
501.052	144.055
501.816	147.703
502.579	148.164
503.342	154.026
504.105	148.81
504.868	134.91
505.631	144.579
506.393	159.675
507.156	148.33
507.918	155.323
508.68	154.386
509.443	153.846
510.205	161.081
510.968	150.817
511.729	152.735
512.491	154.726
513.253	152.496
514.015	150.468
514.776	141.302
515.538	142.52
516.299	144.035
517.06	132.117
517.822	133.878
518.582	138.997
519.343	144.431
520.104	145.594
520.865	138.697
521.626	148.394
522.386	138.653
523.146	148.37
523.906	151.22
524.667	148.283
525.427	145.044
526.187	150.917
526.947	140.927
527.706	142.918
528.466	150.023
529.225	138.834
529.986	133.413
530.745	136.848
531.504	131.625
532.263	133.202
533.022	139.873
533.781	140.468
534.54	138.266
535.298	142.403
536.057	141.151
536.816	139.136
537.574	140.71
538.332	133.826
539.091	130.436
539.849	136.752
540.607	134.617
541.365	125.855
542.122	146.791
542.88	133.167
543.638	136.993
544.395	138.939
545.153	136.11
545.91	137.959
546.668	126.578
547.424	133.116
548.181	141.805
548.938	131.82
549.695	127.244
550.452	147.144
551.208	135.769
551.965	142.422
552.721	140.125
553.477	131.915
554.234	135.475
554.99	136.273
555.745	135.585
556.501	136.208
557.257	141.364
558.013	140.591
558.768	127.68
559.523	136.769
560.279	135.276
561.035	134.597
561.789	140.015
562.544	130.721
563.3	132.086
564.054	131.871
564.809	132.201
565.564	123.394
566.318	133.693
567.073	119.818
567.826	134.012
568.581	141.987
569.335	131.189
570.089	131.305
570.843	130.349
571.596	140.222
572.35	129.005
573.104	125.825
573.857	132.727
574.61	132.713
575.364	125.215
576.117	134.934
576.87	137.524
577.623	129.497
578.376	134.714
579.129	134.131
579.882	132.09
580.634	137.517
581.386	134.369
582.139	132.685
582.891	124.669
583.643	136.25
584.395	135.669
585.147	128.593
585.899	132.472
586.651	126.164
587.402	126.976
588.154	127.516
588.905	121.654
589.656	117.8
590.408	122.244
591.159	130.628
591.91	132.873
592.661	133.885
593.412	124.247
594.163	120.77
594.913	131.213
595.663	128.339
596.414	131.215
597.164	137.888
597.914	128.44
598.664	136.836
599.414	126.125
600.165	125.238
600.915	133.967
601.664	131.775
602.414	119.181
603.163	129.177
603.912	134.469
604.662	131.914
605.411	133.41
606.16	137.423
606.909	123.086
607.658	124.86
608.407	130.495
609.156	125.973
609.904	123.613
610.653	129.705
611.401	130.122
612.149	122.322
612.898	124.591
613.646	137.727
614.394	122.648
615.141	124.747
615.888	132.329
616.636	125.739
617.384	127.853
618.131	136.805
618.879	134.689
619.626	130.296
620.373	131.396
621.121	144.685
621.868	132.206
622.614	136.922
623.361	138.622
624.107	126.237
624.854	147.837
625.601	142.21
626.346	139.43
627.093	130.22
627.839	134.325
628.585	140.024
629.331	134.379
630.077	129.142
630.823	135.834
631.569	133.817
632.313	118.289
633.059	126.577
633.805	123.198
634.549	119.383
635.295	124.575
636.04	113.798
636.784	117.222
637.53	124.061
638.275	123.406
639.019	129.944
639.764	131.379
640.507	130.278
641.252	119.581
641.997	119.259
642.74	124.176
643.485	122.216
644.228	125.546
644.972	128.304
645.716	130.615
646.46	124.564
647.203	125.154
647.947	124.543
648.69	130.463
649.433	133.185
650.176	124.017
650.919	129.248
651.662	133.496
652.404	135.721
653.148	124.147
653.89	120.309
654.633	122.902
655.375	127.533
656.117	124.01
656.86	120.579
657.601	120.424
658.343	121.728
659.086	125.331
659.827	121.967
660.568	114.985
661.311	111.171
662.052	115.763
662.793	116.151
663.535	118.933
664.276	117.425
665.017	122.855
665.758	119.186
666.498	114.748
667.24	116.12
667.98	117.531
668.721	119.418
669.461	116.977
670.201	110.419
670.942	108.226
671.682	112.382
672.422	116.3
673.162	123.368
673.902	128.875
674.642	127.911
675.381	123.124
676.121	120.47
676.86	120.071
677.6	123.443
678.339	123.974
679.079	118.392
679.818	123.308
680.557	118.591
681.296	113.968
682.035	119.094
682.773	118.078
683.512	113.05
684.249	109.363
684.988	112.656
685.726	109.69
686.464	115.8
687.203	108.617
687.941	115.672
688.679	117.738
689.417	119.946
690.154	125.603
690.892	125.549
691.63	110.751
692.366	121.421
693.104	119.954
693.841	118.271
694.578	116.773
695.315	119.569
696.052	120.446
696.789	121.212
697.526	120.9
698.262	115.555
698.998	113.28
699.735	116.876
700.471	119.514
701.208	115.489
701.943	116.597
702.679	115.097
703.416	113.102
704.151	122.045
704.887	115.675
705.623	113.948
706.358	116.793
707.093	115.974
707.829	122.562
708.564	115.032
709.299	108.306
710.034	113.195
710.769	109.9
711.504	120.184
712.238	120.578
712.973	117.098
713.707	117.498
714.442	124.247
715.176	119.764
715.911	115.076
716.644	113.286
717.379	115.937
718.112	115.909
718.846	111.726
719.58	111.464
720.313	109.187
721.047	110.725
721.78	105.721
722.514	108.753
723.247	110.509
723.979	113.925
724.713	119.097
725.446	108.504
726.179	109.332
726.911	113.002
727.644	112.944
728.376	116.222
729.109	118.135
729.841	117.501
730.573	117.092
731.306	109.079
732.038	112.18
732.769	104.949
733.501	102.358
734.233	110.466
734.965	112.365
735.696	111.983
736.427	113.338
737.158	109.348
737.89	114.744
738.621	114.798
739.352	114.04
740.083	109.52
740.814	110.34
741.544	108.747
742.275	114.204
743.005	114.772
743.737	108.957
744.467	104.062
745.197	112.576
745.927	105.593
746.657	108.971
747.387	113.561
748.117	120.024
748.847	108.855
749.576	104.967
750.306	109.668
751.035	108.506
751.765	108.337
752.494	112.244
753.223	118.881
753.952	111.327
754.681	105.285
755.41	112.272
756.138	110.621
756.867	111.28
757.596	114.723
758.324	114.814
759.053	107.377
759.781	109.161
760.509	117.091
761.237	110.735
761.965	101.904
762.693	110.625
763.421	94.8211
764.148	100.998
764.876	101.287
765.604	103.963
766.331	105.57
767.058	102.224
767.785	112.478
768.513	103.005
769.24	107.458
769.966	105.289
770.693	107.92
771.42	108.242
772.146	106.097
772.873	108.419
773.6	112.796
774.326	113.995
775.052	104.454
775.778	108.107
776.504	109.572
777.231	104.43
777.956	108.927
778.682	108.687
779.407	113.872
780.133	106.348
780.858	107.955
781.584	109.834
782.309	111.833
783.034	104.072
783.759	99.0621
784.484	106.184
785.209	103.991
785.934	99.247
786.658	102.346
787.382	116.669
788.107	109.561
788.831	108.115
789.556	111.578
790.28	106.071
791.004	95.0876
791.728	114.033
792.452	112.545
793.175	121.678
793.9	114.225
794.623	111.847
795.346	117.877
796.07	116.035
796.793	123.836
797.516	121.874
798.24	127.919
798.963	124.082
799.685	133.705
800.408	122.357
801.13	124.019
801.854	120.164
802.576	127.787
803.298	112.658
804.021	114.017
804.049	114.092
804.774	118.078
805.498	96.0727
806.223	117.996
806.947	108.049
807.672	102.059
808.396	102.018
809.12	101.963
809.844	115.888
810.568	115.762
811.292	113.842
812.016	100.003
812.74	105.82
813.463	109.737
814.187	113.577
814.91	109.766
815.634	97.7832
816.357	111.368
817.08	109.622
817.802	109.307
818.525	109.363
819.248	101.734
819.971	105.636
820.694	109.259
821.417	111.297
822.138	107.5
822.861	105.342
823.583	105.491
824.305	103.553
825.028	113.145
825.749	122.514
826.471	107.357
827.193	112.696
827.915	105.256
828.636	111.103
829.357	116.841
830.079	105.748
830.8	111.568
831.521	115.117
832.242	116.877
832.964	131.757
833.684	94.1195
834.405	111.064
835.125	120.916
835.846	118.474
836.567	114.521
837.287	107.311
838.008	111.116
838.727	116.599
839.448	114.753
840.168	108.74
840.888	115.733
841.608	109.192
842.327	114.993
843.047	96.7856
843.766	110.712
844.486	114.293
845.205	119.211
845.925	112.634
846.643	111.986
847.363	119.758
848.082	110.877
848.801	112.244
849.519	118.848
850.238	106.862
850.957	105.834
851.675	100.651
852.394	101.105
853.112	120.335
853.83	107.003
854.548	124.693
855.266	118.356
855.984	119.344
856.702	109.474
857.419	121.888
858.137	129.121
858.855	139.846
859.572	142.303
860.289	149.785
861.007	149.969
861.724	158.608
862.441	145.558
863.158	130.891
863.875	139.173
864.592	122.433
865.308	127.248
866.025	117.441
866.741	118.269
867.458	106.525
868.174	107.605
868.89	117.424
869.606	99.0836
870.322	108.056
871.038	100.829
871.754	108.65
872.47	105.639
873.186	94.0531
873.901	105.364
874.616	99.7309
875.332	102.996
876.047	98.5959
876.762	98.583
877.477	97.661
878.192	104.523
878.907	91.9142
879.622	98.5317
880.336	108.533
881.051	95.6898
881.765	100.544
882.48	103.592
883.194	100.445
883.908	94.5896
884.622	100.825
885.337	95.6005
886.051	95.1354
886.764	93.4622
887.477	102.398
888.191	101.269
888.905	99.6727
889.618	96.5997
890.332	89.1224
891.045	101.399
891.758	98.3209
892.471	97.2729
893.184	103.083
893.897	100.345
894.61	101.602
895.322	97.0339
896.035	97.2833
896.747	95.4825
897.46	95.4814
898.172	95.0191
898.884	88.5139
899.597	96.6499
900.309	103.307
901.02	101.104
901.732	91.3314
902.444	99.2473
903.155	88.6666
903.867	93.3455
904.579	104.111
905.29	92.2076
906.001	93.8254
906.712	92.8813
907.423	97.7612
908.135	91.3623
908.845	90.9862
909.556	100.182
910.266	88.4554
910.977	96.1027
911.688	95.1883
912.398	96.6533
913.108	90.9877
913.819	91.8787
914.529	92.952
915.239	85.1918
915.949	89.0664
916.659	95.0329
917.368	92.9155
918.078	101.038
918.788	93.0006
919.498	95.6362
920.207	99.872
920.916	93.6393
921.625	92.8569
922.334	90.0505
923.044	97.5829
923.752	104.554
924.461	94.8437
925.17	91.6784
925.878	95.4575
926.587	96.1242
927.296	102.932
928.004	95.7601
928.712	95.2644
929.42	90.6599
930.128	90.6099
930.836	99.1632
931.544	93.0214
932.251	105.135
932.96	103.195
933.667	91.5474
934.374	95.2044
935.082	100.716
935.789	94.7651
936.497	100.032
937.204	98.1424
937.911	100.002
938.617	102.978
939.324	95.7613
940.031	104.749
940.737	95.7021
941.445	99.9929
942.151	87.6393
942.857	93.5446
943.564	93.3795
944.27	94.211
944.976	95.5113
945.682	90.5413
946.388	85.5828
947.093	98.2961
947.799	90.4928
948.505	90.0533
949.21	94.054
949.916	97.2464
950.621	89.7559
951.326	100.431
952.032	99.0446
952.737	94.4498
953.442	98.2085
954.146	89.0823
954.851	94.6467
955.556	91.8102
956.26	92.484
956.965	97.8248
957.67	95.7682
958.374	97.6249
959.078	94.5624
959.782	94.3501
960.486	92.0082
961.19	91.152
961.894	96.7376
962.598	90.3591
963.301	96.1466
964.005	97.2844
964.709	85.6074
965.412	108.771
966.115	101.567
966.818	103.708
967.522	105.337
968.224	97.6881
968.927	104.474
969.63	101.141
970.333	96.5765
971.036	102.599
971.738	97.3991
972.44	92.1923
973.143	95.8255
973.846	96.6971
974.547	102.522
975.25	98.8234
975.951	95.7903
976.653	98.8749
977.355	97.3228
978.057	99.7314
978.758	99.1506
979.46	92.4956
980.162	84.2763
980.863	95.6519
981.564	98.0345
982.265	92.464
982.966	90.4678
983.667	92.5086
984.368	92.1541
985.069	91.1162
985.769	98.0731
986.471	93.8396
987.171	95.2706
987.871	96.2614
988.572	99.51
989.272	95.5476
989.972	88.4808
990.672	93.8495
991.372	94.0062
992.072	94.9238
992.772	91.7603
993.471	92.4385
994.171	98.6592
994.87	92.1475
995.57	97.5666
996.269	92.719
996.969	87.4373
997.667	97.0364
998.366	92.205
999.065	93.1748
999.765	92.0725
1000.46	89.056
1001.16	92.7597
1001.86	95.0125
1002.56	96.0642
1003.26	95.5194
1003.96	89.3193
1004.65	94.8981
1005.35	96.4797
1006.05	93.4503
1006.75	92.4414
1007.45	99.533
1008.14	92.4167
1008.84	85.2927
1009.54	97.9699
1010.24	99.7511
1010.93	95.513
1011.63	99.1805
1012.33	89.5179
1013.03	98.2053
1013.72	90.366
1014.42	99.252
1015.12	96.2715
1015.81	104.158
1016.51	96.3301
1017.21	94.8513
1017.9	93.0165
1018.6	100.953
1019.29	97.2157
1019.99	101.687
1020.69	94.4559
1021.38	99.648
1022.08	94.03
1022.77	95.7502
1023.47	95.2667
1024.17	100.464
1024.86	95.8273
1025.56	92.9643
1026.25	86.7289
1026.95	98.4812
1027.64	99.3392
1028.34	90.6589
1029.03	95.5721
1029.73	88.7163
1030.42	88.6977
1031.12	98.7119
1031.81	91.3791
1032.51	92.8941
1033.2	94.3016
1033.9	95.4677
1034.59	101.749
1035.28	94.7958
1035.98	93.5826
1036.67	94.0315
1037.37	96.2133
1038.06	100.38
1038.75	95.106
1039.45	93.4667
1040.14	95.7071
1040.83	95.1985
1041.53	94.3972
1042.22	91.9955
1042.91	94.5416
1043.61	93.5053
1044.3	97.3578
1044.99	101.319
1045.69	94.067
1046.38	93.525
1047.07	93.5215
1047.76	92.1082
1048.46	94.7517
1049.15	96.6554
1049.84	91.0124
1050.53	94.0033
1051.22	92.6764
1051.92	94.4545
1052.61	92.0265
1053.3	92.7785
1053.99	98.6366
1054.68	96.6469
1055.37	97.4223
1056.07	95.5499
1056.76	95.1079
1057.45	96.4812
1058.14	94.6691
1058.83	96.7583
1059.52	95.169
1060.21	99.2188
1060.9	90.9449
1061.59	91.3024
1062.28	97.8608
1062.98	96.2807
1063.67	98.9171
1064.36	92.5769
1065.05	94.9864
1065.74	94.3316
1066.43	88.2745
1067.12	95.4837
1067.81	92.2789
1068.5	99.5133
1069.19	101.019
1069.88	101.014
1070.56	92.2115
1071.25	93.2326
1071.94	93.7164
1072.63	95.7121
1073.32	99.277
1074.01	93.4016
1074.7	96.1635
1075.39	99.019
1076.08	96.5408
1076.77	95.5905
1077.46	100.575
1078.14	102.621
1078.83	107.164
1079.52	103.683
1080.21	101.089
1080.9	96.2976
1081.58	93.7589
1082.27	92.5673
1082.96	96.3998
1083.65	96.9547
1084.34	95.7784
1085.02	93.7224
1085.71	94.8468
1086.4	95.6762
1087.09	95.5882
1087.77	97.3748
1088.46	100.499
1089.15	105.032
1089.83	103.359
1090.52	99.4836
1091.21	97.6903
1091.9	97.2922
1092.58	100.871
1093.27	99.0492
1093.95	101.905
1094.64	101.648
1095.33	100.718
1096.01	103.75
1096.7	98.7188
1097.39	99.7744
1098.07	102.956
1098.76	105.264
1099.44	103.814
1100.13	107.829
1100.81	102.744
1101.5	101.302
1102.18	105.662
1102.87	104.053
1103.56	101.737
1104.24	102.982
1104.93	104.108
1105.61	97.344
1106.29	105.142
1106.98	105.558
1107.66	109.012
1108.35	106.404
1109.03	100.251
1109.72	101.741
1110.4	107.72
1111.09	102.973
1111.77	99.6847
1112.45	99.4085
1113.14	99.6938
1113.82	100.052
1114.51	97.7057
1115.19	100.458
1115.87	104.3
1116.56	104.284
1117.24	99.7581
1117.92	102.42
1118.61	109.833
1119.29	108.586
1119.97	103.477
1120.66	102.376
1121.34	103.929
1122.02	101.785
1122.7	99.4345
1123.39	106.154
1124.07	107.586
1124.75	104.726
1125.43	102.575
1126.12	104.155
1126.8	104.032
1127.48	106.861
1128.16	112.233
1128.84	112.081
1129.53	103.445
1130.21	103.643
1130.89	102.545
1131.57	95.8798
1132.25	108.002
1132.93	115.254
1133.61	104.716
1134.3	103.002
1134.98	105.986
1135.66	104.477
1136.34	111.363
1137.02	111.637
1137.7	108.292
1138.38	109.126
1139.06	112.478
1139.74	107.469
1140.42	110.227
1141.1	108.843
1141.78	107.965
1142.46	113.486
1143.14	107.381
1143.82	105.599
1144.5	114.661
1145.18	116.553
1145.86	114.046
1146.54	115.858
1147.22	119.853
1147.9	111.328
1148.58	114.925
1149.26	115.33
1149.94	114.524
1150.62	115.25
1151.3	109.411
1151.97	113.107
1152.65	115.063
1153.33	107.696
1154.01	109.829
1154.69	110.086
1155.37	114.197
1156.05	104.76
1156.72	112.384
1157.4	111.354
1158.08	100.032
1158.76	112.124
1159.44	123.189
1160.11	122.124
1160.79	115.602
1161.47	118.232
1162.15	114.306
1162.82	109.618
1163.5	119.187
1164.02	120.725
1164.7	134.651
1165.38	110.774
1166.06	114.777
1166.74	110.87
1167.42	118.832
1168.1	130.585
1168.78	134.623
1169.46	119.074
1170.14	138.522
1170.81	138.238
1171.49	111.111
1172.17	130.591
1172.85	118.999
1173.53	113.066
1174.21	126.304
1174.89	109.219
1175.56	122.453
1176.24	117.043
1176.92	122.612
1177.6	113.048
1178.27	116.646
1178.95	124.539
1179.63	112.992
1180.31	114.547
1180.99	122.33
1181.66	113.247
1182.34	122.665
1183.02	122.839
1183.7	115.299
1184.37	109.661
1185.05	115.339
1185.73	120.416
1186.4	123.993
1187.08	125.919
1187.76	126.532
1188.43	116.921
1189.11	114.42
1189.78	109.526
1190.46	136.979
1191.14	128.811
1191.81	116.979
1192.49	120.867
1193.17	127.574
1193.84	127.868
1194.52	124.071
1195.19	128.478
1195.87	125.154
1196.54	109.747
1197.22	124.642
1197.89	121.446
1198.57	118.708
1199.24	130.326
1199.92	126.042
1200.59	124.059
1201.27	130.46
1201.94	126.154
1202.62	127.68
1203.29	126.681
1203.97	128.366
1204.64	124.211
1205.32	123.067
1205.99	129.038
1206.67	113.944
1207.34	125.974
1208.01	130.202
1208.69	129.307
1209.36	120.22
1210.03	131.295
1210.71	129.04
1211.38	124.244
1212.06	126.985
1212.73	130.492
1213.4	131.18
1214.08	134.688
1214.75	124.224
1215.42	138.943
1216.09	134.142
1216.77	134.561
1217.44	140.414
1218.11	135.207
1218.79	143.239
1219.46	130.499
1220.13	145.628
1220.8	141.813
1221.47	136.909
1222.15	143.466
1222.82	127.558
1223.49	131.19
1224.16	138.199
1224.83	126.932
1225.51	134.216
1226.18	153.944
1226.85	128.84
1227.52	151.253
1228.19	119.946
1228.86	124.744
1229.54	133.475
1230.21	134.844
1230.88	138.273
1231.55	136.742
1232.22	136.158
1232.89	138.616
1233.56	146.895
1234.23	127.455
1234.9	131.821
1235.57	138.484
1236.24	134.277
1236.91	148.195
1237.58	139.878
1238.25	133.32
1238.92	131.94
1239.59	136.619
1240.26	140.83
1240.93	134.375
1241.6	145.017
1242.27	139.727
1242.94	143.046
1243.61	143.698
1244.28	138.935
1244.95	148.137
1245.62	147.331
1246.29	149.097
1246.96	139.129
1247.62	136.55
1248.29	137.313
1248.96	133.887
1249.63	132.271
1250.3	152.376
1250.97	147.128
1251.64	135.238
1252.3	145.836
1252.97	139.296
1253.64	134.599
1254.31	139.983
1254.98	143.756
1255.64	141.158
1256.31	136.388
1256.98	148.416
1257.65	146.533
1258.31	142.334
1258.98	134.21
1259.65	135.71
1260.32	147.297
1260.98	136.608
1261.65	141.748
1262.32	147.585
1262.98	145.681
1263.65	142.129
1264.32	148.484
1264.98	139.836
1265.65	144.836
1266.32	144.506
1266.98	145.722
1267.65	150.966
1268.32	144.881
1268.98	150.553
1269.65	142.046
1270.31	136.975
1270.98	138.682
1271.65	140.118
1272.31	141.5
1272.98	137.997
1273.64	143.574
1274.31	143.267
1274.97	152.626
1275.64	147.854
1276.3	151.892
1276.97	143.693
1277.63	149.06
1278.3	141.966
1278.96	153.433
1279.63	154.704
1280.29	146.156
1280.96	159.62
1281.62	155.257
1282.29	156.701
1282.95	151.539
1283.62	147.17
1284.28	161.56
1284.94	146.738
1285.61	148.27
1286.27	147.516
1286.94	135.113
1287.6	158.036
1288.26	143.988
1288.93	150.789
1289.59	152.924
1290.25	162.584
1290.92	162.684
1291.58	153.349
1292.24	152.051
1292.91	156.661
1293.57	161.518
1294.23	162.282
1294.89	154.714
1295.56	154.556
1296.22	162.732
1296.88	160.092
1297.54	151.659
1298.21	153.74
1298.87	163.393
1299.53	158.335
1300.19	165.236
1300.85	162.848
1301.52	165.104
1302.18	172.262
1302.84	170.769
1303.5	159.869
1304.16	169.394
1304.82	174.783
1305.49	165.005
1306.15	174.549
1306.81	176.304
1307.47	164.984
1308.13	178.308
1308.79	181.129
1309.45	181.146
1310.11	172.851
1310.77	181.714
1311.44	187.134
1312.1	180.942
1312.76	186.29
1313.42	188.304
1314.08	177.963
1314.74	185.85
1315.4	186.565
1316.06	197.705
1316.72	194.975
1317.38	194.702
1318.04	196.348
1318.7	199.806
1319.36	203.865
1320.02	196.728
1320.68	208.985
1321.33	208
1321.99	203.785
1322.65	205.255
1323.31	207.865
1323.97	204.283
1324.63	216.207
1325.29	212.843
1325.95	230.495
1326.61	226.196
1327.27	219.761
1327.92	224.54
1328.58	227.067
1329.24	211.327
1329.9	207.83
1330.56	220.386
1331.22	213.236
1331.87	213.022
1332.53	212.97
1333.19	225.498
1333.85	219.728
1334.5	219.459
1335.16	218.009
1335.82	217.424
1336.48	227.992
1337.13	221.545
1337.79	231.606
1338.45	222.249
1339.1	222.325
1339.76	224.01
1340.42	229.795
1341.08	231.912
1341.73	232.79
1342.39	225.662
1343.05	234.128
1343.7	235.31
1344.36	220.076
1345.02	227.698
1345.67	234.696
1346.33	226.103
1346.98	227.797
1347.64	230.776
1348.3	246.006
1348.95	232.216
1349.61	238.171
1350.26	233.094
1350.92	233.413
1351.57	239.712
1352.23	231.6
1352.88	233.221
1353.54	234.249
1354.19	236.978
1354.85	249.609
1355.5	249.739
1356.16	243.786
1356.81	246.428
1357.47	243.3
1358.12	247.418
1358.78	247.37
1359.43	242.467
1360.09	244.843
1360.74	245.515
1361.4	249.793
1362.05	255.313
1362.7	245.868
1363.36	237.088
1364.01	240.751
1364.67	248.934
1365.32	248.383
1365.97	239.404
1366.63	246.644
1367.28	244.721
1367.93	247.232
1368.59	249.404
1369.24	252.507
1369.89	251.877
1370.55	251.184
1371.2	246.207
1371.85	246.577
1372.5	244.138
1373.16	249.842
1373.81	243.201
1374.46	250.22
1375.12	258.209
1375.77	242.551
1376.42	244.828
1377.07	238.69
1377.72	248.69
1378.38	249.572
1379.03	254.706
1379.68	247.815
1380.33	246.877
1380.98	252.768
1381.64	245.991
1382.29	247.521
1382.94	236.875
1383.59	234.786
1384.24	247.068
1384.89	245.667
1385.54	234.761
1386.19	239.825
1386.84	247.935
1387.5	237.696
1388.15	244.409
1388.8	237.781
1389.45	230.961
1390.1	244.013
1390.75	244.34
1391.4	251.189
1392.05	252.155
1392.7	243.825
1393.35	237.202
1394	246.294
1394.65	245.981
1395.3	247.759
1395.95	237.509
1396.6	233.816
1397.25	235.705
1397.9	227.589
1398.55	238.28
1399.2	225.893
1399.85	236.226
1400.5	238.742
1401.14	235.374
1401.79	219.336
1402.44	236.234
1403.09	245.84
1403.74	226.781
1404.39	232.69
1405.04	222.876
1405.69	240.109
1406.33	232.649
1406.98	235.025
1407.63	226.817
1408.28	236.369
1408.93	224.895
1409.58	230.395
1410.22	234.96
1410.87	229.098
1411.52	230.805
1412.17	224.1
1412.81	238.743
1413.46	230.28
1414.11	234.35
1414.76	221.972
1415.4	215.9
1416.05	222.337
1416.7	225.874
1417.35	217.47
1417.99	231.565
1418.64	235.391
1419.29	221.263
1419.93	229.438
1420.58	223.056
1421.23	231.874
1421.87	220.737
1422.52	215.142
1423.17	214.351
1423.81	221.295
1424.46	228.201
1425.1	237.981
1425.75	222.394
1426.4	223.845
1427.04	208.239
1427.69	212.837
1428.33	216.942
1428.98	221.634
1429.62	224.705
1430.27	219.088
1430.91	220.055
1431.56	216.726
1432.2	221.541
1432.85	214.106
1433.49	223.881
1434.14	216.342
1434.78	212.256
1435.43	211.588
1436.07	220.047
1436.72	210.864
1437.36	201.101
1438.01	209.816
1438.65	211.474
1439.3	212.539
1439.94	213.522
1440.58	217.241
1441.23	207.646
1441.87	221.416
1442.52	216.382
1443.16	207.879
1443.8	204.153
1444.45	213.756
1445.09	202.732
1445.73	212.051
1446.38	209.16
1447.02	205.838
1447.66	205.049
1448.31	206.023
1448.95	208.567
1449.59	210.742
1450.24	213.589
1450.88	207.106
1451.52	198.243
1452.16	203.894
1452.81	208.638
1453.45	200.942
1454.09	195.469
1454.73	206.679
1455.37	198.369
1456.02	189.136
1456.66	189.36
1457.3	204.277
1457.94	192.228
1458.58	204.185
1459.23	207.884
1459.87	198.281
1460.51	200.853
1461.15	203.341
1461.79	193.288
1462.43	193.372
1463.08	189.796
1463.72	192.195
1464.36	191.13
1465	194.438
1465.64	184.381
1466.28	192.946
1466.92	196.655
1467.56	193.467
1468.2	199.409
1468.84	191.844
1469.48	190.121
1470.12	188.953
1470.76	192.156
1471.4	192.966
1472.04	195.067
1472.68	190.115
1473.32	183.707
1473.96	183.157
1474.6	199.34
1475.24	187.418
1475.88	184.335
1476.52	183.142
1477.16	188.534
1477.8	199.839
1478.44	192.983
1479.08	190.909
1479.72	188.006
1480.36	185.867
1481	178.632
1481.63	184.425
1482.27	183.37
1482.91	193.265
1483.55	184.833
1484.19	186.396
1484.83	172.1
1485.47	182.967
1486.1	185.241
1486.74	184.726
1487.38	183.287
1488.02	177.6
1488.66	189.8
1489.29	186.241
1489.93	182.803
1490.57	189.855
1491.21	175.078
1491.84	182.936
1492.48	180.411
1493.12	174.712
1493.76	185.658
1494.39	178.85
1495.03	172.102
1495.67	175.582
1496.3	179.897
1496.94	187.936
1497.58	181.579
1498.22	170.717
1498.85	175.407
1499.49	179.259
1500.12	180.65
1500.76	179.94
1501.4	187.074
1501.62	191.141
1502.26	171.475
1502.89	177.404
1503.53	185.117
1504.17	181.275
1504.81	177.423
1505.45	175.458
1506.08	179.28
1506.72	169.757
1507.36	187.668
1508	196.908
1508.64	189.247
1509.27	160.262
1509.91	189.232
1510.55	171.802
1511.19	177.374
1511.82	170.035
1512.46	181.274
1513.1	190.503
1513.73	180.993
1514.37	179.325
1515.01	172.967
1515.65	180.928
1516.28	181.148
1516.92	177.479
1517.56	168.599
1518.19	174.002
1518.83	186.594
1519.46	177.272
1520.1	161.714
1520.74	167.145
1521.37	179.073
1522.01	175.437
1522.65	176.788
1523.28	162.495
1523.92	181.705
1524.55	163.77
1525.19	179.625
1525.82	175.159
1526.46	171.075
1527.09	162.46
1527.73	162.922
1528.37	163.921
1529	174.993
1529.64	173.318
1530.27	176.217
1530.9	171.344
1531.54	165.594
1532.17	173.34
1532.81	183.465
1533.44	167.382
1534.08	171.34
1534.71	154.51
1535.35	167.807
1535.98	168.89
1536.62	162.683
1537.25	168.647
1537.88	167.932
1538.52	161.633
1539.15	173.122
1539.79	168.875
1540.42	166.152
1541.05	168.859
1541.69	165.382
1542.32	164.989
1542.95	166.855
1543.59	169.016
1544.22	171.957
1544.85	154.285
1545.49	167.079
1546.12	164.819
1546.75	156.567
1547.39	175.579
1548.02	172.828
1548.65	175.724
1549.28	161.604
1549.92	170.98
1550.55	161.815
1551.18	156.626
1551.81	158.585
1552.44	167.484
1553.08	166.037
1553.71	162.721
1554.34	167.309
1554.97	163.449
1555.6	166.027
1556.24	153.611
1556.87	162.422
1557.5	165.792
1558.13	165.298
1558.76	166.21
1559.39	171.372
1560.02	165.766
1560.66	159.715
1561.29	164.984
1561.92	158.713
1562.55	154.881
1563.18	172.773
1563.81	159.458
1564.44	149.198
1565.07	169.625
1565.7	154.007
1566.33	156.484
1566.96	170.68
1567.59	162.989
1568.22	159.698
1568.85	149.304
1569.48	158.723
1570.11	160.672
1570.74	153.429
1571.37	149.484
1572	158.305
1572.63	153.472
1573.26	153.625
1573.89	158.959
1574.52	165.316
1575.15	152.869
1575.78	153.516
1576.41	160.266
1577.04	172.542
1577.67	155.101
1578.3	164.352
1578.93	158.34
1579.55	150.512
1580.18	164.549
1580.81	159.08
1581.44	158.945
1582.07	156.977
1582.7	156.78
1583.32	147.316
1583.95	153.724
1584.58	148.068
1585.21	162.54
1585.84	164.356
1586.47	161.608
1587.09	153.404
1587.72	163.319
1588.35	157.897
1588.98	159.026
1589.6	156.286
1590.23	148.552
1590.86	166.021
1591.49	154.284
1592.11	155.132
1592.74	157.798
1593.37	163.347
1593.99	153.179
1594.62	151.154
1595.25	162.073
1595.87	158.121
1596.5	154.733
1597.13	154.807
1597.75	149.524
1598.38	145.2
1599.01	154.187
1599.63	158.753
1600.26	145.232
1600.89	154.58
1601.51	149.742
1602.14	155.865
1602.76	167.315
1603.39	156.567
1604.02	164.363
1604.64	155.797
1605.27	163.903
1605.89	166.578
1606.52	160.955
1607.14	163.659
1607.77	160.801
1608.39	157.716
1609.02	162.126
1609.64	161.018
1610.27	158.492
1610.89	156.896
1611.52	159.69
1612.14	158.471
1612.77	158.515
1613.39	159.03
1614.02	155.094
1614.64	152.367
1615.26	150.429
1615.89	151.745
1616.51	158.97
1617.14	170.104
1617.76	159.196
1618.38	152.244
1619.01	149.168
1619.63	161.044
1620.26	165.913
1620.88	160.815
1621.5	157.411
1622.13	163.713
1622.75	149.267
1623.37	154.415
1624	156.779
1624.62	159.108
1625.24	156.21
1625.87	149.859
1626.49	145.911
1627.11	154.064
1627.73	155.731
1628.36	148.836
1628.98	147.926
1629.6	157.773
1630.22	146.007
1630.85	151.992
1631.47	143.109
1632.09	148.287
1632.71	151.399
1633.33	144.829
1633.96	143.196
1634.58	140.666
1635.2	144.752
1635.82	157.929
1636.44	157.35
1637.07	151.147
1637.69	148.971
1638.31	151.933
1638.93	146.524
1639.55	145.998
1640.17	135.977
1640.79	136.861
1641.41	154.527
1642.04	139.256
1642.66	142.8
1643.28	148.243
1643.9	143.797
1644.52	145.315
1645.14	153.682
1645.76	150.716
1646.38	142.749
1647	144.128
1647.62	150.855
1648.24	147.441
1648.86	147.138
1649.48	147.16
1650.1	146.222
1650.72	141.772
1651.34	148.187
1651.96	142.592
1652.58	137.91
1653.2	143.813
1653.82	139.431
1654.44	146.445
1655.06	142.609
1655.68	133.754
1656.29	136.03
1656.91	137.772
1657.53	138.028
1658.15	142.791
1658.77	141.973
1659.39	135.33
1660.01	138.126
1660.63	141.904
1661.25	139.1
1661.86	139.887
1662.48	141.948
1663.1	133.81
1663.72	132.45
1664.34	140.866
1664.96	140.046
1665.57	134.615
1666.19	145.781
1666.81	140.196
1667.43	138.105
1668.04	137.885
1668.66	135.39
1669.28	139.512
1669.9	131.576
1670.51	136.263
1671.13	135.097
1671.75	139.095
1672.37	137.191
1672.98	133.579
1673.6	132.356
1674.22	138.862
1674.83	130.123
1675.45	129.65
1676.07	132.034
1676.68	136.612
1677.3	132.302
1677.92	131.77
1678.53	133.17
1679.15	134.192
1679.77	135.593
1680.38	126.561
1681	131.135
1681.61	132.9
1682.23	130.626
1682.85	126.839
1683.46	136.118
1684.08	134.361
1684.69	120.714
1685.31	124.088
1685.92	134.031
1686.54	133.431
1687.15	130.545
1687.77	120.304
1688.38	128.064
1689	127.096
1689.61	123.764
1690.23	122.993
1690.84	129.675
1691.46	131.683
1692.07	126.497
1692.69	126.435
1693.3	134.164
1693.92	121.013
1694.53	120.475
1695.15	133.701
1695.76	124.685
1696.37	127.265
1696.99	131.411
1697.6	119.348
1698.22	119.024
1698.83	128.678
1699.44	115.04
1700.06	118.439
1700.67	126.013
1701.28	123.245
1701.9	117.204
1702.51	120.018
1703.12	124.8
1703.74	121.078
1704.35	125.963
1704.96	124.72
1705.58	120.29
1706.19	126.235
1706.8	123.316
1707.42	118.001
1708.03	125.908
1708.64	126.44
1709.25	120.209
1709.87	124.085
1710.48	121.529
1711.09	125.188
1711.7	123.47
1712.31	123.024
1712.93	124.289
1713.54	118.751
1714.15	116.088
1714.76	119.489
1715.37	117.323
1715.99	115.985
1716.6	118.453
1717.21	108.329
1717.82	120.827
1718.43	123.821
1719.04	122.912
1719.65	114.897
1720.27	122.785
1720.88	115.514
1721.49	129.065
1722.1	124.744
1722.71	108.148
1723.32	124.596
1723.93	122.715
1724.54	117.736
1725.15	116.587
1725.76	119.826
1726.37	123.821
1726.98	116.145
1727.59	109.592
1728.2	118.282
1728.81	117.917
1729.42	106.555
1730.03	122.557
1730.64	116.247
1731.25	122.077
1731.86	118.504
1732.47	113.472
1733.08	112.589
1733.69	119.72
1734.3	107.816
1734.91	111.908
1735.52	122.334
1736.13	110.75
1736.74	109.592
1737.35	117.011
1737.96	118.54
1738.57	112.816
1739.17	110.985
1739.78	113.491
1740.39	112.664
1741	119.149
1741.61	121.602
1742.22	118.754
1742.83	107.814
1743.43	116.099
1744.04	116.597
1744.65	109.773
1745.26	114.158
1745.87	111.182
1746.47	111.524
1747.08	108.849
1747.69	109.021
1748.3	109.022
1748.9	108.853
1749.51	114.052
1750.12	114.586
1750.73	119.166
1751.33	106.155
1751.94	106.387
1752.55	115.13
1753.16	115.764
1753.76	111.253
1754.37	103.995
1754.98	108.626
1755.58	114.834
1756.19	107.072
1756.8	113.077
1757.4	111.495
1758.01	110.591
1758.62	115.397
1759.22	114.293
1759.83	122.142
1760.43	108.241
1761.04	114.942
1761.65	110.468
1762.25	115.942
1762.86	115.484
1763.46	108.032
1764.07	110.603
1764.68	111.507
1765.28	102.984
1765.89	114.764
1766.49	114.461
1767.1	104.26
1767.7	108.205
1768.31	107.555
1768.91	102.446
1769.52	111.304
1770.12	113.525
1770.73	108.509
1771.33	106.257
1771.94	109.107
1772.54	113.1
1773.15	111.44
1773.75	111.225
1774.36	107.147
1774.96	110.01
1775.56	98.1997
1776.17	96.5909
1776.77	100.851
1777.38	100.714
1777.98	115.229
1778.58	111.363
1779.19	104.156
1779.79	107.083
1780.4	110.078
1781	118.731
1781.6	109.079
1782.21	102.878
1782.81	106.271
1783.41	112.695
1784.02	108.284
1784.62	105.202
1785.22	107.098
1785.82	107.691
1786.43	100.659
1787.03	106.393
1787.63	109.345
1788.24	104.074
1788.84	105.679
1789.44	107.271
1790.04	103.551
1790.65	113.778
1791.25	108.179
1791.85	104.576
1792.45	104.09
1793.05	106.167
1793.66	107.059
1794.26	106.385
1794.86	101.217
1795.46	96.4299
1796.06	103.595
1796.67	105.462
1797.27	99.6413
1797.87	105.444
1798.47	109.225
1799.07	107.926
1799.67	107.025
1800.27	106.894
1800.88	110.416
1801.48	108.073
1802.08	106.07
1802.68	104.192
1803.28	106.009
1803.88	98.3638
1804.48	99.4887
1805.08	106.903
1805.68	102.947
1806.28	103.864
1806.88	104.464
1807.48	96.7651
1808.08	100.643
1808.68	104.978
1809.28	107.57
1809.88	109.41
1810.48	102.701
1811.08	98.7102
1811.68	101.859
1812.28	105.836
1812.88	103.39
1813.48	104.714
1814.08	103.818
1814.68	104.378
1815.28	112.523
1815.88	112.614
1816.48	109.517
1817.08	107.715
1817.39	106.685
1817.99	110.516
1818.59	116.28
1819.19	96.5837
1819.79	96.665
1820.4	118.387
1821	106.821
1821.6	93.0672
1822.2	95.0168
1822.8	110.467
1823.4	112.198
1824	102.538
1824.6	108.888
1825.2	99.0347
1825.8	113.888
1826.4	102.562
1827	117.599
1827.6	96.9503
1828.2	110.044
1828.8	102.645
1829.4	104.686
1830	101.117
1830.6	95.3193
1831.2	104.523
1831.8	102.827
1832.4	108.626
1833	112.117
1833.6	104.773
1834.2	103.18
1834.8	102.398
1835.4	104.231
1835.99	92.4642
1836.59	94.6073
1837.19	99.7803
1837.79	102.226
1838.39	97.7748
1838.99	111.23
1839.59	109.732
1840.18	101.077
1840.78	101.358
1841.38	101.493
1841.98	108.213
1842.58	101.24
1843.18	110.435
1843.77	99.9341
1844.37	115.52
1844.97	108.272
1845.57	113.351
1846.17	104.239
1846.76	100.18
1847.36	101.653
1847.96	99.8852
1848.56	102.983
1849.15	98.5014
1849.75	100.467
1850.35	105.474
1850.95	113.853
1851.54	96.5521
1852.14	104.669
1852.74	111.641
1853.33	96.4585
1853.93	102.306
1854.53	104.308
1855.12	98.7621
1855.72	104.858
1856.32	105.275
1856.91	113.971
1857.51	107.986
1858.11	99.7474
1858.7	96.7394
1859.3	103.647
1859.89	94.7459
1860.49	106.518
1861.09	101.574
1861.68	108.047
1862.28	101.159
1862.87	99.6142
1863.47	109.201
1864.06	98.1332
1864.66	98.3108
1865.26	97.317
1865.85	108.483
1866.45	102.831
1867.04	93.7367
1867.64	106.273
1868.23	93.2679
1868.83	100.952
1869.42	103.842
1870.02	99.4971
1870.61	97.8786
1871.21	98.8113
1871.8	106.145
1872.4	96.636
1872.99	103.827
1873.58	97.3024
1874.18	104.657
1874.77	93.7199
1875.37	103.858
1875.96	94.1869
1876.56	99.8382
1877.15	101.438
1877.74	94.1839
1878.34	99.1666
1878.93	95.1908
1879.52	101.204
1880.12	103.808
1880.71	93.1403
1881.3	92.5019
1881.9	95.1315
1882.49	109.453
1883.08	98.7159
1883.68	102.19
1884.27	89.6494
1884.86	97.2375
1885.46	96.7072
1886.05	100.465
1886.64	101.285
1887.23	94.3636
1887.83	93.5098
1888.42	91.3609
1889.01	97.5517
1889.61	96.9393
1890.2	97.1202
1890.79	95.5717
1891.38	101.285
1891.97	97.6519
1892.57	90.5876
1893.16	97.2361
1893.75	98.3715
1894.34	92.1116
1894.93	96.475
1895.53	92.5704
1896.12	101.498
1896.71	90.7836
1897.3	97.6082
1897.89	96.574
1898.48	96.977
1899.07	96.0959
1899.67	92.7821
1900.26	92.0506
1900.85	89.3121
1901.44	92.206
1902.03	91.5543
1902.62	94.3957
1903.21	89.247
1903.8	87.1821
1904.39	88.1318
1904.98	91.5706
1905.57	93.1061
1906.16	87.6275
1906.75	93.0706
1907.34	94.2911
1907.93	91.8201
1908.53	87.1416
1909.11	89.3869
1909.7	90.1857
1910.3	88.5941
1910.88	95.3666
1911.47	95.0337
1912.06	97.6945
1912.65	88.5668
1913.24	84.8546
1913.83	86.6614
1914.42	89.1744
1915.01	87.2259
1915.6	90.7021
1916.19	87.8713
1916.78	92.3823
1917.37	100.039
1917.96	92.5349
1918.55	90.7826
1919.13	88.2323
1919.72	93.2159
1920.31	85.1037
1920.9	87.3733
1921.49	93.3566
1922.08	92.4286
1922.67	85.6059
1923.25	87.4854
1923.84	95.5908
1924.43	93.6469
1925.02	88.6996
1925.61	94.1305
1926.19	88.7106
1926.78	89.6414
1927.37	90.1452
1927.96	85.6604
1928.55	94.2967
1929.13	76.438
1929.72	89.8469
1930.31	88.5879
1930.9	85.5593
1931.48	89.0896
1932.07	87.47
1932.66	86.8306
1933.24	83.7193
1933.83	90.2013
1934.42	86.9013
1935.01	85.3492
1935.59	77.9955
1936.18	79.7671
1936.77	90.076
1937.35	89.1984
1937.94	87.3735
1938.53	86.3581
1939.11	87.1554
1939.7	83.4054
1940.28	90.0229
1940.87	82.4932
1941.46	93.1526
1942.04	86.2787
1942.63	79.3073
1943.21	80.2919
1943.8	81.3074
1944.39	83.2976
1944.97	83.2949
1945.56	83.3048
1946.14	77.3047
1946.73	79.2755
1947.31	72.3556
1947.9	82.2339
1948.48	81.2629
1949.07	76.2899
1949.65	82.3012
1950.24	78.3751
1950.82	81.2539
1951.41	81.2647
1951.99	83.2357
1952.58	75.3944
1953.16	76.446
1953.75	75.3934
1954.33	77.322
1954.92	78.1348
1955.5	78.2575
1956.08	73.452
1956.67	83.0458
1957.25	76.5303
1957.84	76.4421
1958.42	72.1363
1959.01	82.3647
1959.59	69.584
1960.17	75.0739
1960.76	76.4824
1961.34	73.3254
1961.92	75.892
1962.51	75.7328
1963.09	74.4257
1963.67	78.1989
1964.26	72.5467
1964.84	77.0882
1965.42	76.8108
1966.01	74.0695
1966.59	75.4284
1967.17	74.2029
1967.76	79.9364
1968.34	71.767
1968.92	67.1333
1969.5	75.4664
1970.09	73.2193
1970.67	73.2368
1971.25	75.5021
1971.83	75.4868
1972.42	75.3311
1973	70.8132
1973.58	72.4211
1974.16	68.3767
1974.74	67.0527
1975.33	74.4777
1975.91	69.517
1976.49	74.2993
1977.07	77.714
1977.65	76.5031
1978.24	72.2609
1978.82	77.4586
1979.4	74.4068
1979.98	72.4103
1980.56	71.2478
1981.14	65.4828
1981.72	67.7956
1982.3	73.5984
1982.89	68.3382
1983.47	66.3372
1984.05	70.4272
1984.63	68.0808
1985.21	67.174
1985.79	65.6574
1986.37	62.48
1986.95	70.1045
1987.53	64.6983
1988.11	68.9084
1988.69	68.1118
1989.27	64.9495
1989.85	69.3756
1990.43	64.7372
1991.01	69.6361
1991.59	69.1835
1992.17	67.0497
1992.75	66.4971
1993.33	68.8585
1993.91	64.7704
1994.49	66.6464
1995.07	66.2946
1995.65	67.0267
1996.23	66.0444
1996.81	61.7194
1997.39	68.9553
1997.97	65.8196
1998.55	67.6951
1999.13	67.23
1999.71	66.1564
1999.89	60.0041
